*RAS_DATA_START
*RAS_HEADER_START
*DISP_FMT_X "%.2f"
*DISP_FMT_Y "%.0f"
*DISP_FULLSCALE "329.5000000000"
*DISP_LINE_COLOR "255.0000000000"
*DISP_LINE_STYLE "0.0000000000"
*DISP_LINE_WIDTH "0.2500000000"
*DISP_NOTE "Collected Data-8"
*DISP_OFFSET_Y "0.0000000000"
*DISP_PEAKSEARCH_UNIT_Y "cps"
*DISP_RANGE_BOTTOM "0.0000000000"
*DISP_RANGE_LEFT "15.0000000000"
*DISP_RANGE_LOGCUTOFF "0.0100000000"
*DISP_RANGE_RIGHT "90.0000000000"
*DISP_RANGE_TOP "329.5000000000"
*DISP_SCALE_MODE_Y "0.0000000000"
*DISP_TAB_NAME "Theta/2-Theta"
*DISP_TITLE_Y "Intensity"
*DISP_UNIT_Y "cps"
*DISP_WINDOW_NAME "MSG_MACROENGINE"
*FILE_COMMENT " "
*FILE_MD5 ""
*FILE_MEMO " "
*FILE_OPERATOR "qmtlab"
*FILE_PART_ID "MEAS_KHP2_00068"
*FILE_SAMPLE " "
*FILE_TYPE "RAS_RAW"
*FILE_USERGROUP "System Manager"
*FILE_VERSION "1.0000000000"
*HW_ATTACHMENT_ID "ATT0022"
*HW_ATTACHMENT_NAME "RxRy|RxRy"
*HW_COUNTER_ID-0 "CUT0021"
*HW_COUNTER_ID-1 "CUT0020"
*HW_COUNTER_ID-2 ""
*HW_COUNTER_ID-3 "CSL0021"
*HW_COUNTER_ID-4 "CMC0021"
*HW_COUNTER_NAME-0 "SC-70|SC-70"
*HW_COUNTER_NAME-1 "None|None"
*HW_COUNTER_NAME-2 ""
*HW_COUNTER_NAME-3 "BBM|BBM"
*HW_COUNTER_NAME-4 "検出器モノクロメータ|Detector monochromator"
*HW_COUNTER_SELECT_NAME "SC-70|SC-70"
*HW_ECP_HV "655.5000000000"
*HW_ECP_HV_UNIT "V"
*HW_GONIOMETER_ID "GON0024"
*HW_GONIOMETER_NAME "SmartLab(In-plane)|SmartLab(In-plane)"
*HW_GONIOMETER_RADIUS-0 "90.0"
*HW_GONIOMETER_RADIUS-1 "114.0"
*HW_GONIOMETER_RADIUS-2 "190.0"
*HW_GONIOMETER_RADIUS-3 "300.0"
*HW_GONIOMETER_RADIUS-4 "187.0"
*HW_GONIOMETER_RADIUS-5 "300.0"
*HW_GONIOMETER_RADIUS-6 "113.0"
*HW_GONIOMETER_RADIUS-7 "331.0"
*HW_I_OPT_ID-0 "CBO0021"
*HW_I_OPT_ID-1 "ICR0023"
*HW_I_OPT_ID-2 "ISL0021"
*HW_I_OPT_ID-3 "ISO0021"
*HW_I_OPT_ID-4 "IAD0021"
*HW_I_OPT_ID-5 "IPR0001"
*HW_I_OPT_NAME-0 "CBOユニット|CBO unit"
*HW_I_OPT_NAME-1 "標準入射光学ユニット|Standard incident optical unit"
*HW_I_OPT_NAME-2 "標準入射スリットボックス|Standard incident slit box"
*HW_I_OPT_NAME-3 "入射平行スリット|Incident parallel slit"
*HW_I_OPT_NAME-4 "長手制限スリット|Length limiting slit"
*HW_I_OPT_NAME-5 "None|None"
*HW_R_ATTENUATER_AUTOMODE "0"
*HW_R_OPT_ID-0 "RSS0021"
*HW_R_OPT_ID-1 "RCR0022"
*HW_R_OPT_ID-2 "RSO0021"
*HW_R_OPT_ID-3 "RRS0021"
*HW_R_OPT_ID-4 "ATN0021"
*HW_R_OPT_ID-5 "RFL0021"
*HW_R_OPT_ID-6 "RAD0021"
*HW_R_OPT_NAME-0 "標準受光スリットボックス1|Standard receiving slit box # 1"
*HW_R_OPT_NAME-1 "標準受光光学ユニット1|Standard receiving unit # 1"
*HW_R_OPT_NAME-2 "標準受光光学ユニット2|Standard receiving optical unit # 2"
*HW_R_OPT_NAME-3 "標準受光スリットボックス2|Standard receiving slit box # 2"
*HW_R_OPT_NAME-4 "標準アッテネータ|Standard Attenuator"
*HW_R_OPT_NAME-5 "Cu Kβ|Cu K-beta"
*HW_R_OPT_NAME-6 "調整用受光スリット|Alignment receiving slit"
*HW_SAMPLE_HOLDER_ID "SMP0026"
*HW_SAMPLE_HOLDER_NAME "Z-φステージ|Z-Phi Stage"
*HW_XG_CURRENT_MAX "50"
*HW_XG_CURRENT_MIN "2"
*HW_XG_CURRENT_RESOLUTION "2"
*HW_XG_CURRENT_UNIT "mA"
*HW_XG_FOCUS "1mm x 10mm"
*HW_XG_FOCUS_TYPE "Normal"
*HW_XG_ID ""
*HW_XG_NAME "3kW 封入管(ID:1200)|3kW Sealed tube(ID:1200)"
*HW_XG_TARGET_ATOMIC_NUMBER "29.0000000000"
*HW_XG_TARGET_NAME "Cu"
*HW_XG_TYPE "Hermetic"
*HW_XG_VOLTAGE_MAX "60"
*HW_XG_VOLTAGE_MIN "20"
*HW_XG_VOLTAGE_RESOLUTION "2"
*HW_XG_VOLTAGE_UNIT "kV"
*HW_XG_WATT_MAX "2"
*HW_XG_WATT_UNIT "kW"
*HW_XG_WAVE_LENGTH_ALPHA1 "1.540593"
*HW_XG_WAVE_LENGTH_ALPHA2 "1.544414"
*HW_XG_WAVE_LENGTH_BETA "1.392250"
*MEAS_COND_AXIS_NAME-0 "Theta/2-Theta"
*MEAS_COND_AXIS_NAME-1 "2-Theta"
*MEAS_COND_AXIS_NAME-2 "Omega"
*MEAS_COND_AXIS_NAME-3 "Phi"
*MEAS_COND_AXIS_NAME-4 "Z"
*MEAS_COND_AXIS_NAME-5 "Rx"
*MEAS_COND_AXIS_NAME-6 "Ry"
*MEAS_COND_AXIS_NAME-7 "2-Theta/Omega"
*MEAS_COND_AXIS_NAME-8 "2-ThetaChi"
*MEAS_COND_AXIS_NAME-9 "2-ThetaChi/Phi"
*MEAS_COND_AXIS_NAME-10 "Alpha"
*MEAS_COND_AXIS_NAME-11 "Beta"
*MEAS_COND_AXIS_NAME-12 "Theta_s"
*MEAS_COND_AXIS_NAME-13 "Theta_d"
*MEAS_COND_AXIS_NAME-14 "Ts"
*MEAS_COND_AXIS_NAME-15 "CBO selection slit"
*MEAS_COND_AXIS_NAME-16 "M"
*MEAS_COND_AXIS_NAME-17 "Incident parallel slit"
*MEAS_COND_AXIS_NAME-18 "Incident slit"
*MEAS_COND_AXIS_NAME-19 ""
*MEAS_COND_AXIS_NAME-20 "Zs"
*MEAS_COND_AXIS_NAME-21 "Incident monochromator"
*MEAS_COND_AXIS_NAME-22 "Length limiting slit"
*MEAS_COND_AXIS_NAME-23 "Center slit"
*MEAS_COND_AXIS_NAME-24 "Filter"
*MEAS_COND_AXIS_NAME-25 "Receiving slit # 1"
*MEAS_COND_AXIS_NAME-26 "Receiving slit # 2"
*MEAS_COND_AXIS_NAME-27 "Receiving optical device"
*MEAS_COND_AXIS_NAME-28 "Receiving parallel slit"
*MEAS_COND_AXIS_NAME-29 "Alignment receiving slit"
*MEAS_COND_AXIS_NAME-30 ""
*MEAS_COND_AXIS_NAME-31 ""
*MEAS_COND_AXIS_NAME-32 "Zd"
*MEAS_COND_AXIS_NAME-33 "Attenuator"
*MEAS_COND_AXIS_NAME-34 "Diffracted beam monochromator"
*MEAS_COND_AXIS_NAME-35 "Monochromator slit"
*MEAS_COND_AXIS_NAME-36 "2-ThetaB"
*MEAS_COND_AXIS_NAME-37 "Primary beam"
*MEAS_COND_AXIS_NAME-38 "HV"
*MEAS_COND_AXIS_NAME-39 "PHA"
*MEAS_COND_AXIS_NAME_INTERNAL-0 "TwoThetaTheta"
*MEAS_COND_AXIS_NAME_INTERNAL-1 "TwoTheta"
*MEAS_COND_AXIS_NAME_INTERNAL-2 "Omega"
*MEAS_COND_AXIS_NAME_INTERNAL-3 "Phi"
*MEAS_COND_AXIS_NAME_INTERNAL-4 "Z"
*MEAS_COND_AXIS_NAME_INTERNAL-5 "Rx"
*MEAS_COND_AXIS_NAME_INTERNAL-6 "Ry"
*MEAS_COND_AXIS_NAME_INTERNAL-7 "TwoThetaOmega"
*MEAS_COND_AXIS_NAME_INTERNAL-8 "TwoThetaChi"
*MEAS_COND_AXIS_NAME_INTERNAL-9 "TwoThetaChiPhi"
*MEAS_COND_AXIS_NAME_INTERNAL-10 "Alpha"
*MEAS_COND_AXIS_NAME_INTERNAL-11 "Beta"
*MEAS_COND_AXIS_NAME_INTERNAL-12 "ThetaS"
*MEAS_COND_AXIS_NAME_INTERNAL-13 "ThetaD"
*MEAS_COND_AXIS_NAME_INTERNAL-14 "Ts"
*MEAS_COND_AXIS_NAME_INTERNAL-15 "CBO"
*MEAS_COND_AXIS_NAME_INTERNAL-16 "CBO-M"
*MEAS_COND_AXIS_NAME_INTERNAL-17 "IncidentSollerSlit"
*MEAS_COND_AXIS_NAME_INTERNAL-18 "IncidentSlitBox"
*MEAS_COND_AXIS_NAME_INTERNAL-19 "IncidentSlitBox-_Axis"
*MEAS_COND_AXIS_NAME_INTERNAL-20 "Zs"
*MEAS_COND_AXIS_NAME_INTERNAL-21 "IncidentMonochromator"
*MEAS_COND_AXIS_NAME_INTERNAL-22 "IncidentAxdSlit"
*MEAS_COND_AXIS_NAME_INTERNAL-23 "CenterSlit"
*MEAS_COND_AXIS_NAME_INTERNAL-24 "Filter"
*MEAS_COND_AXIS_NAME_INTERNAL-25 "ReceivingSlitBox1"
*MEAS_COND_AXIS_NAME_INTERNAL-26 "ReceivingSlitBox2"
*MEAS_COND_AXIS_NAME_INTERNAL-27 "ReceivingOptics"
*MEAS_COND_AXIS_NAME_INTERNAL-28 "ReceivingSollerSlit"
*MEAS_COND_AXIS_NAME_INTERNAL-29 "ReceivingAxdSlit"
*MEAS_COND_AXIS_NAME_INTERNAL-30 "ReceivingSlitBox1-_Axis"
*MEAS_COND_AXIS_NAME_INTERNAL-31 "ReceivingSlitBox2-_Axis"
*MEAS_COND_AXIS_NAME_INTERNAL-32 "ReceivingSlitBox2-Zd"
*MEAS_COND_AXIS_NAME_INTERNAL-33 "Attenuator"
*MEAS_COND_AXIS_NAME_INTERNAL-34 "CounterMonochromator"
*MEAS_COND_AXIS_NAME_INTERNAL-35 "CounterSlit"
*MEAS_COND_AXIS_NAME_INTERNAL-36 "TwoThetaB"
*MEAS_COND_AXIS_NAME_INTERNAL-37 "IncidentPrimary"
*MEAS_COND_AXIS_NAME_INTERNAL-38 "HV"
*MEAS_COND_AXIS_NAME_INTERNAL-39 "PHA"
*MEAS_COND_AXIS_NAME_MAGICNO-0 "83951616.0000000000"
*MEAS_COND_AXIS_NAME_MAGICNO-1 "268632064.0000000000"
*MEAS_COND_AXIS_NAME_MAGICNO-2 "268500992.0000000000"
*MEAS_COND_AXIS_NAME_MAGICNO-3 "268500992.0000000000"
*MEAS_COND_AXIS_NAME_MAGICNO-4 "285278208.0000000000"
*MEAS_COND_AXIS_NAME_MAGICNO-5 "285278208.0000000000"
*MEAS_COND_AXIS_NAME_MAGICNO-6 "285278208.0000000000"
*MEAS_COND_AXIS_NAME_MAGICNO-7 "83951616.0000000000"
*MEAS_COND_AXIS_NAME_MAGICNO-8 "268632064.0000000000"
*MEAS_COND_AXIS_NAME_MAGICNO-9 "83951616.0000000000"
*MEAS_COND_AXIS_NAME_MAGICNO-10 "17039360.0000000000"
*MEAS_COND_AXIS_NAME_MAGICNO-11 "17039360.0000000000"
*MEAS_COND_AXIS_NAME_MAGICNO-12 "131072.0000000000"
*MEAS_COND_AXIS_NAME_MAGICNO-13 "131072.0000000000"
*MEAS_COND_AXIS_NAME_MAGICNO-14 "318898176.0000000000"
*MEAS_COND_AXIS_NAME_MAGICNO-15 "20971521.0000000000"
*MEAS_COND_AXIS_NAME_MAGICNO-16 "285343744.0000000000"
*MEAS_COND_AXIS_NAME_MAGICNO-17 "20971521.0000000000"
*MEAS_COND_AXIS_NAME_MAGICNO-18 "22020097.0000000000"
*MEAS_COND_AXIS_NAME_MAGICNO-19 "25165824.0000000000"
*MEAS_COND_AXIS_NAME_MAGICNO-20 "318898176.0000000000"
*MEAS_COND_AXIS_NAME_MAGICNO-21 "1.0000000000"
*MEAS_COND_AXIS_NAME_MAGICNO-22 "20971521.0000000000"
*MEAS_COND_AXIS_NAME_MAGICNO-23 "20971521.0000000000"
*MEAS_COND_AXIS_NAME_MAGICNO-24 "20971521.0000000000"
*MEAS_COND_AXIS_NAME_MAGICNO-25 "23068673.0000000000"
*MEAS_COND_AXIS_NAME_MAGICNO-26 "23068673.0000000000"
*MEAS_COND_AXIS_NAME_MAGICNO-27 "20971521.0000000000"
*MEAS_COND_AXIS_NAME_MAGICNO-28 "20971521.0000000000"
*MEAS_COND_AXIS_NAME_MAGICNO-29 "20971521.0000000000"
*MEAS_COND_AXIS_NAME_MAGICNO-30 "25165824.0000000000"
*MEAS_COND_AXIS_NAME_MAGICNO-31 "25165824.0000000000"
*MEAS_COND_AXIS_NAME_MAGICNO-32 "285343744.0000000000"
*MEAS_COND_AXIS_NAME_MAGICNO-33 "17301505.0000000000"
*MEAS_COND_AXIS_NAME_MAGICNO-34 "20971521.0000000000"
*MEAS_COND_AXIS_NAME_MAGICNO-35 "20971521.0000000000"
*MEAS_COND_AXIS_NAME_MAGICNO-36 "17039360.0000000000"
*MEAS_COND_AXIS_NAME_MAGICNO-37 "20971521.0000000000"
*MEAS_COND_AXIS_NAME_MAGICNO-38 "0.0000000000"
*MEAS_COND_AXIS_NAME_MAGICNO-39 "0.0000000000"
*MEAS_COND_AXIS_OFFSET-0 "-"
*MEAS_COND_AXIS_OFFSET-1 "0.0743000000"
*MEAS_COND_AXIS_OFFSET-2 "-0.2477000000"
*MEAS_COND_AXIS_OFFSET-3 "0.0000000000"
*MEAS_COND_AXIS_OFFSET-4 "-"
*MEAS_COND_AXIS_OFFSET-5 "-"
*MEAS_COND_AXIS_OFFSET-6 "-"
*MEAS_COND_AXIS_OFFSET-7 "-"
*MEAS_COND_AXIS_OFFSET-8 "0.0000000000"
*MEAS_COND_AXIS_OFFSET-9 "-"
*MEAS_COND_AXIS_OFFSET-10 "-"
*MEAS_COND_AXIS_OFFSET-11 "-"
*MEAS_COND_AXIS_OFFSET-12 "-0.2477000000"
*MEAS_COND_AXIS_OFFSET-13 "0.3220000000"
*MEAS_COND_AXIS_OFFSET-14 "-"
*MEAS_COND_AXIS_OFFSET-15 "-"
*MEAS_COND_AXIS_OFFSET-16 "-"
*MEAS_COND_AXIS_OFFSET-17 "-"
*MEAS_COND_AXIS_OFFSET-18 "-"
*MEAS_COND_AXIS_OFFSET-19 "-"
*MEAS_COND_AXIS_OFFSET-20 "-"
*MEAS_COND_AXIS_OFFSET-21 "-"
*MEAS_COND_AXIS_OFFSET-22 "-"
*MEAS_COND_AXIS_OFFSET-23 "-"
*MEAS_COND_AXIS_OFFSET-24 "-"
*MEAS_COND_AXIS_OFFSET-25 "-"
*MEAS_COND_AXIS_OFFSET-26 "-"
*MEAS_COND_AXIS_OFFSET-27 "-"
*MEAS_COND_AXIS_OFFSET-28 "-"
*MEAS_COND_AXIS_OFFSET-29 "-"
*MEAS_COND_AXIS_OFFSET-30 "-"
*MEAS_COND_AXIS_OFFSET-31 "-"
*MEAS_COND_AXIS_OFFSET-32 "-"
*MEAS_COND_AXIS_OFFSET-33 "-"
*MEAS_COND_AXIS_OFFSET-34 "-"
*MEAS_COND_AXIS_OFFSET-35 "-"
*MEAS_COND_AXIS_OFFSET-36 "-"
*MEAS_COND_AXIS_OFFSET-37 "-"
*MEAS_COND_AXIS_OFFSET-38 "-"
*MEAS_COND_AXIS_OFFSET-39 "-"
*MEAS_COND_AXIS_POSITION-0 "0.0000000000"
*MEAS_COND_AXIS_POSITION-1 "0.0000000000"
*MEAS_COND_AXIS_POSITION-2 "0.0000000000"
*MEAS_COND_AXIS_POSITION-3 "0.0000000000"
*MEAS_COND_AXIS_POSITION-4 "-0.3500000000"
*MEAS_COND_AXIS_POSITION-5 "0.0000000000"
*MEAS_COND_AXIS_POSITION-6 "0.0000000000"
*MEAS_COND_AXIS_POSITION-7 "0.0000000000"
*MEAS_COND_AXIS_POSITION-8 "0.0000000000"
*MEAS_COND_AXIS_POSITION-9 "0.0000000000"
*MEAS_COND_AXIS_POSITION-10 "90.0000000000"
*MEAS_COND_AXIS_POSITION-11 "0.0000000000"
*MEAS_COND_AXIS_POSITION-12 "0.0000000000"
*MEAS_COND_AXIS_POSITION-13 "0.0000000000"
*MEAS_COND_AXIS_POSITION-14 "-0.7132500000"
*MEAS_COND_AXIS_POSITION-15 "BB"
*MEAS_COND_AXIS_POSITION-16 "0.0000000000"
*MEAS_COND_AXIS_POSITION-17 "Soller_slit_5.0deg"
*MEAS_COND_AXIS_POSITION-18 "1/2deg"
*MEAS_COND_AXIS_POSITION-19 "1.6581000000"
*MEAS_COND_AXIS_POSITION-20 "-0.2062500000"
*MEAS_COND_AXIS_POSITION-21 "0.0000000000"
*MEAS_COND_AXIS_POSITION-22 "2.0mm"
*MEAS_COND_AXIS_POSITION-23 "None"
*MEAS_COND_AXIS_POSITION-24 "Cu_K-beta"
*MEAS_COND_AXIS_POSITION-25 "1/2deg"
*MEAS_COND_AXIS_POSITION-26 "0.300mm"
*MEAS_COND_AXIS_POSITION-27 "PSA_open"
*MEAS_COND_AXIS_POSITION-28 "Soller_slit_5.0deg"
*MEAS_COND_AXIS_POSITION-29 "None"
*MEAS_COND_AXIS_POSITION-30 "0.9862000000"
*MEAS_COND_AXIS_POSITION-31 "0.3000000000"
*MEAS_COND_AXIS_POSITION-32 "0.4228100000"
*MEAS_COND_AXIS_POSITION-33 "Open"
*MEAS_COND_AXIS_POSITION-34 "None"
*MEAS_COND_AXIS_POSITION-35 "None"
*MEAS_COND_AXIS_POSITION-36 "0.0000000000"
*MEAS_COND_AXIS_POSITION-37 "None"
*MEAS_COND_AXIS_POSITION-38 "655.5000000000"
*MEAS_COND_AXIS_POSITION-39 "526.2500000000"
*MEAS_COND_AXIS_UNIT-0 "deg"
*MEAS_COND_AXIS_UNIT-1 "deg"
*MEAS_COND_AXIS_UNIT-2 "deg"
*MEAS_COND_AXIS_UNIT-3 "deg"
*MEAS_COND_AXIS_UNIT-4 "mm"
*MEAS_COND_AXIS_UNIT-5 "deg"
*MEAS_COND_AXIS_UNIT-6 "deg"
*MEAS_COND_AXIS_UNIT-7 "deg"
*MEAS_COND_AXIS_UNIT-8 "deg"
*MEAS_COND_AXIS_UNIT-9 "deg"
*MEAS_COND_AXIS_UNIT-10 "deg"
*MEAS_COND_AXIS_UNIT-11 "deg"
*MEAS_COND_AXIS_UNIT-12 "deg"
*MEAS_COND_AXIS_UNIT-13 "deg"
*MEAS_COND_AXIS_UNIT-14 "mm"
*MEAS_COND_AXIS_UNIT-15 ""
*MEAS_COND_AXIS_UNIT-16 "pulse"
*MEAS_COND_AXIS_UNIT-17 ""
*MEAS_COND_AXIS_UNIT-18 ""
*MEAS_COND_AXIS_UNIT-19 "mm"
*MEAS_COND_AXIS_UNIT-20 "mm"
*MEAS_COND_AXIS_UNIT-21 ""
*MEAS_COND_AXIS_UNIT-22 ""
*MEAS_COND_AXIS_UNIT-23 ""
*MEAS_COND_AXIS_UNIT-24 ""
*MEAS_COND_AXIS_UNIT-25 ""
*MEAS_COND_AXIS_UNIT-26 ""
*MEAS_COND_AXIS_UNIT-27 ""
*MEAS_COND_AXIS_UNIT-28 ""
*MEAS_COND_AXIS_UNIT-29 ""
*MEAS_COND_AXIS_UNIT-30 "mm"
*MEAS_COND_AXIS_UNIT-31 "mm"
*MEAS_COND_AXIS_UNIT-32 "mm"
*MEAS_COND_AXIS_UNIT-33 ""
*MEAS_COND_AXIS_UNIT-34 ""
*MEAS_COND_AXIS_UNIT-35 ""
*MEAS_COND_AXIS_UNIT-36 "deg"
*MEAS_COND_AXIS_UNIT-37 ""
*MEAS_COND_AXIS_UNIT-38 "V"
*MEAS_COND_AXIS_UNIT-39 "mV"
*MEAS_COND_COUNTER_CNTLOSS_CORR "1.0000000000"
*MEAS_COND_COUNTER_PHABASE "526.2500000000"
*MEAS_COND_COUNTER_PHAWINDOW "807.5000000000"
*MEAS_COND_COUNTER_PHA_UNIT "mV"
*MEAS_COND_COUNTER_TAUDIFF "0.1731010000"
*MEAS_COND_COUNTER_TAUINT "0.6617980000"
*MEAS_COND_IRRADIATION_MODE "OFF"
*MEAS_COND_IRRADIATION_WIDTH ""
*MEAS_COND_OPT_ATTR "Bragg-Brentano focusing"
*MEAS_COND_OPT_NAME "@BB focusing"
*MEAS_COND_UNSYMMETRIC_MODE "OFF"
*MEAS_COND_XG_CURRENT "30.0000000000"
*MEAS_COND_XG_VOLTAGE "40.0000000000"
*MEAS_COND_XG_WAVE_TYPE "Ka"
*MEAS_DATA_COUNT "7501.0000000000"
*MEAS_SCAN_AXIS_X "Theta/2-Theta"
*MEAS_SCAN_AXIS_X_INTERNAL "TwoThetaTheta"
*MEAS_SCAN_END_TIME "07/16/19 18:36:37"
*MEAS_SCAN_MODE "CONTINUOUS"
*MEAS_SCAN_MONITOR "0"
*MEAS_SCAN_RESOLUTION_X "0.0002"
*MEAS_SCAN_SPEED "0.250000"
*MEAS_SCAN_SPEED_UNIT "deg/min"
*MEAS_SCAN_SPEED_USER "0.25"
*MEAS_SCAN_START "15.0000000000"
*MEAS_SCAN_START_TIME "07/16/19 13:36:21"
*MEAS_SCAN_STEP "0.0100000000"
*MEAS_SCAN_STOP "90.0000000000"
*MEAS_SCAN_UNIT_X "deg"
*MEAS_SCAN_UNIT_Y "counts"
*RAS_HEADER_END
*RAS_INT_START
15.0000 242.0000 1.0000
15.0100 244.0000 1.0000
15.0200 224.0000 1.0000
15.0300 266.0000 1.0000
15.0400 238.0000 1.0000
15.0500 242.0000 1.0000
15.0600 251.0000 1.0000
15.0700 260.0000 1.0000
15.0800 254.0000 1.0000
15.0900 243.0000 1.0000
15.1000 232.0000 1.0000
15.1100 241.0000 1.0000
15.1200 234.0000 1.0000
15.1300 252.0000 1.0000
15.1400 246.0000 1.0000
15.1500 264.0000 1.0000
15.1600 231.0000 1.0000
15.1700 231.0000 1.0000
15.1800 277.0000 1.0000
15.1900 275.0000 1.0000
15.2000 261.0000 1.0000
15.2100 248.0000 1.0000
15.2200 262.0000 1.0000
15.2300 230.0000 1.0000
15.2400 271.0000 1.0000
15.2500 270.0000 1.0000
15.2600 233.0000 1.0000
15.2700 262.0000 1.0000
15.2800 262.0000 1.0000
15.2900 250.0000 1.0000
15.3000 240.0000 1.0000
15.3100 253.0000 1.0000
15.3200 256.0000 1.0000
15.3300 261.0000 1.0000
15.3400 268.0000 1.0000
15.3500 259.0000 1.0000
15.3600 243.0000 1.0000
15.3700 252.0000 1.0000
15.3800 237.0000 1.0000
15.3900 260.0000 1.0000
15.4000 269.0000 1.0000
15.4100 224.0000 1.0000
15.4200 265.0000 1.0000
15.4300 231.0000 1.0000
15.4400 267.0000 1.0000
15.4500 277.0000 1.0000
15.4600 262.0000 1.0000
15.4700 254.0000 1.0000
15.4800 271.0000 1.0000
15.4900 260.0000 1.0000
15.5000 274.0000 1.0000
15.5100 257.0000 1.0000
15.5200 289.0000 1.0000
15.5300 247.0000 1.0000
15.5400 281.0000 1.0000
15.5500 298.0000 1.0000
15.5600 264.0000 1.0000
15.5700 255.0000 1.0000
15.5800 250.0000 1.0000
15.5900 224.0000 1.0000
15.6000 271.0000 1.0000
15.6100 269.0000 1.0000
15.6200 286.0000 1.0000
15.6300 255.0000 1.0000
15.6400 255.0000 1.0000
15.6500 274.0000 1.0000
15.6600 248.0000 1.0000
15.6700 271.0000 1.0000
15.6800 266.0000 1.0000
15.6900 269.0000 1.0000
15.7000 268.0000 1.0000
15.7100 265.0000 1.0000
15.7200 258.0000 1.0000
15.7300 255.0000 1.0000
15.7400 283.0000 1.0000
15.7500 275.0000 1.0000
15.7600 275.0000 1.0000
15.7700 257.0000 1.0000
15.7800 269.0000 1.0000
15.7900 260.0000 1.0000
15.8000 241.0000 1.0000
15.8100 274.0000 1.0000
15.8200 271.0000 1.0000
15.8300 255.0000 1.0000
15.8400 282.0000 1.0000
15.8500 270.0000 1.0000
15.8600 222.0000 1.0000
15.8700 276.0000 1.0000
15.8800 278.0000 1.0000
15.8900 270.0000 1.0000
15.9000 278.0000 1.0000
15.9100 247.0000 1.0000
15.9200 246.0000 1.0000
15.9300 248.0000 1.0000
15.9400 288.0000 1.0000
15.9500 269.0000 1.0000
15.9600 264.0000 1.0000
15.9700 262.0000 1.0000
15.9800 268.0000 1.0000
15.9900 236.0000 1.0000
16.0000 277.0000 1.0000
16.0100 292.0000 1.0000
16.0200 251.0000 1.0000
16.0300 278.0000 1.0000
16.0400 275.0000 1.0000
16.0500 263.0000 1.0000
16.0600 288.0000 1.0000
16.0700 245.0000 1.0000
16.0800 286.0000 1.0000
16.0900 268.0000 1.0000
16.1000 268.0000 1.0000
16.1100 257.0000 1.0000
16.1200 290.0000 1.0000
16.1300 272.0000 1.0000
16.1400 272.0000 1.0000
16.1500 275.0000 1.0000
16.1600 255.0000 1.0000
16.1700 273.0000 1.0000
16.1800 312.0000 1.0000
16.1900 266.0000 1.0000
16.2000 272.0000 1.0000
16.2100 280.0000 1.0000
16.2200 255.0000 1.0000
16.2300 283.0000 1.0000
16.2400 296.0000 1.0000
16.2500 292.0000 1.0000
16.2600 301.0000 1.0000
16.2700 281.0000 1.0000
16.2800 293.0000 1.0000
16.2900 290.0000 1.0000
16.3000 298.0000 1.0000
16.3100 292.0000 1.0000
16.3200 262.0000 1.0000
16.3300 283.0000 1.0000
16.3400 287.0000 1.0000
16.3500 280.0000 1.0000
16.3600 302.0000 1.0000
16.3700 270.0000 1.0000
16.3800 279.0000 1.0000
16.3900 270.0000 1.0000
16.4000 283.0000 1.0000
16.4100 267.0000 1.0000
16.4200 305.0000 1.0000
16.4300 291.0000 1.0000
16.4400 276.0000 1.0000
16.4500 255.0000 1.0000
16.4600 271.0000 1.0000
16.4700 276.0000 1.0000
16.4800 300.0000 1.0000
16.4900 255.0000 1.0000
16.5000 275.0000 1.0000
16.5100 276.0000 1.0000
16.5200 251.0000 1.0000
16.5300 271.0000 1.0000
16.5400 309.0000 1.0000
16.5500 302.0000 1.0000
16.5600 310.0000 1.0000
16.5700 276.0000 1.0000
16.5800 307.0000 1.0000
16.5900 279.0000 1.0000
16.6000 279.0000 1.0000
16.6100 287.0000 1.0000
16.6200 277.0000 1.0000
16.6300 289.0000 1.0000
16.6400 288.0000 1.0000
16.6500 290.0000 1.0000
16.6600 271.0000 1.0000
16.6700 280.0000 1.0000
16.6800 310.0000 1.0000
16.6900 274.0000 1.0000
16.7000 297.0000 1.0000
16.7100 283.0000 1.0000
16.7200 287.0000 1.0000
16.7300 268.0000 1.0000
16.7400 290.0000 1.0000
16.7500 277.0000 1.0000
16.7600 273.0000 1.0000
16.7700 275.0000 1.0000
16.7800 253.0000 1.0000
16.7900 285.0000 1.0000
16.8000 273.0000 1.0000
16.8100 277.0000 1.0000
16.8200 282.0000 1.0000
16.8300 273.0000 1.0000
16.8400 286.0000 1.0000
16.8500 279.0000 1.0000
16.8600 291.0000 1.0000
16.8700 311.0000 1.0000
16.8800 280.0000 1.0000
16.8900 265.0000 1.0000
16.9000 292.0000 1.0000
16.9100 295.0000 1.0000
16.9200 250.0000 1.0000
16.9300 278.0000 1.0000
16.9400 278.0000 1.0000
16.9500 269.0000 1.0000
16.9600 313.0000 1.0000
16.9700 297.0000 1.0000
16.9800 300.0000 1.0000
16.9900 283.0000 1.0000
17.0000 271.0000 1.0000
17.0100 302.0000 1.0000
17.0200 290.0000 1.0000
17.0300 283.0000 1.0000
17.0400 282.0000 1.0000
17.0500 255.0000 1.0000
17.0600 286.0000 1.0000
17.0700 271.0000 1.0000
17.0800 305.0000 1.0000
17.0900 263.0000 1.0000
17.1000 294.0000 1.0000
17.1100 298.0000 1.0000
17.1200 270.0000 1.0000
17.1300 286.0000 1.0000
17.1400 232.0000 1.0000
17.1500 308.0000 1.0000
17.1600 247.0000 1.0000
17.1700 303.0000 1.0000
17.1800 321.0000 1.0000
17.1900 285.0000 1.0000
17.2000 264.0000 1.0000
17.2100 324.0000 1.0000
17.2200 273.0000 1.0000
17.2300 279.0000 1.0000
17.2400 288.0000 1.0000
17.2500 288.0000 1.0000
17.2600 249.0000 1.0000
17.2700 308.0000 1.0000
17.2800 282.0000 1.0000
17.2900 294.0000 1.0000
17.3000 308.0000 1.0000
17.3100 280.0000 1.0000
17.3200 279.0000 1.0000
17.3300 276.0000 1.0000
17.3400 302.0000 1.0000
17.3500 300.0000 1.0000
17.3600 293.0000 1.0000
17.3700 291.0000 1.0000
17.3800 307.0000 1.0000
17.3900 291.0000 1.0000
17.4000 306.0000 1.0000
17.4100 262.0000 1.0000
17.4200 306.0000 1.0000
17.4300 320.0000 1.0000
17.4400 286.0000 1.0000
17.4500 282.0000 1.0000
17.4600 293.0000 1.0000
17.4700 285.0000 1.0000
17.4800 307.0000 1.0000
17.4900 289.0000 1.0000
17.5000 291.0000 1.0000
17.5100 264.0000 1.0000
17.5200 302.0000 1.0000
17.5300 316.0000 1.0000
17.5400 285.0000 1.0000
17.5500 316.0000 1.0000
17.5600 287.0000 1.0000
17.5700 275.0000 1.0000
17.5800 304.0000 1.0000
17.5900 314.0000 1.0000
17.6000 299.0000 1.0000
17.6100 337.0000 1.0000
17.6200 278.0000 1.0000
17.6300 307.0000 1.0000
17.6400 307.0000 1.0000
17.6500 246.0000 1.0000
17.6600 311.0000 1.0000
17.6700 303.0000 1.0000
17.6800 295.0000 1.0000
17.6900 290.0000 1.0000
17.7000 285.0000 1.0000
17.7100 306.0000 1.0000
17.7200 299.0000 1.0000
17.7300 307.0000 1.0000
17.7400 270.0000 1.0000
17.7500 320.0000 1.0000
17.7600 310.0000 1.0000
17.7700 298.0000 1.0000
17.7800 283.0000 1.0000
17.7900 266.0000 1.0000
17.8000 306.0000 1.0000
17.8100 289.0000 1.0000
17.8200 289.0000 1.0000
17.8300 314.0000 1.0000
17.8400 278.0000 1.0000
17.8500 286.0000 1.0000
17.8600 288.0000 1.0000
17.8700 297.0000 1.0000
17.8800 273.0000 1.0000
17.8900 338.0000 1.0000
17.9000 325.0000 1.0000
17.9100 294.0000 1.0000
17.9200 282.0000 1.0000
17.9300 292.0000 1.0000
17.9400 292.0000 1.0000
17.9500 283.0000 1.0000
17.9600 302.0000 1.0000
17.9700 289.0000 1.0000
17.9800 313.0000 1.0000
17.9900 288.0000 1.0000
18.0000 302.0000 1.0000
18.0100 300.0000 1.0000
18.0200 290.0000 1.0000
18.0300 305.0000 1.0000
18.0400 275.0000 1.0000
18.0500 278.0000 1.0000
18.0600 299.0000 1.0000
18.0700 305.0000 1.0000
18.0800 288.0000 1.0000
18.0900 277.0000 1.0000
18.1000 294.0000 1.0000
18.1100 275.0000 1.0000
18.1200 257.0000 1.0000
18.1300 283.0000 1.0000
18.1400 300.0000 1.0000
18.1500 315.0000 1.0000
18.1600 283.0000 1.0000
18.1700 290.0000 1.0000
18.1800 283.0000 1.0000
18.1900 325.0000 1.0000
18.2000 277.0000 1.0000
18.2100 290.0000 1.0000
18.2200 285.0000 1.0000
18.2300 293.0000 1.0000
18.2400 288.0000 1.0000
18.2500 281.0000 1.0000
18.2600 259.0000 1.0000
18.2700 288.0000 1.0000
18.2800 306.0000 1.0000
18.2900 292.0000 1.0000
18.3000 337.0000 1.0000
18.3100 321.0000 1.0000
18.3200 302.0000 1.0000
18.3300 269.0000 1.0000
18.3400 313.0000 1.0000
18.3500 325.0000 1.0000
18.3600 315.0000 1.0000
18.3700 327.0000 1.0000
18.3800 295.0000 1.0000
18.3900 323.0000 1.0000
18.4000 295.0000 1.0000
18.4100 312.0000 1.0000
18.4200 334.0000 1.0000
18.4300 311.0000 1.0000
18.4400 346.0000 1.0000
18.4500 291.0000 1.0000
18.4600 339.0000 1.0000
18.4700 320.0000 1.0000
18.4800 314.0000 1.0000
18.4900 326.0000 1.0000
18.5000 308.0000 1.0000
18.5100 327.0000 1.0000
18.5200 300.0000 1.0000
18.5300 296.0000 1.0000
18.5400 329.0000 1.0000
18.5500 282.0000 1.0000
18.5600 322.0000 1.0000
18.5700 315.0000 1.0000
18.5800 319.0000 1.0000
18.5900 337.0000 1.0000
18.6000 300.0000 1.0000
18.6100 274.0000 1.0000
18.6200 266.0000 1.0000
18.6300 323.0000 1.0000
18.6400 296.0000 1.0000
18.6500 289.0000 1.0000
18.6600 297.0000 1.0000
18.6700 299.0000 1.0000
18.6800 296.0000 1.0000
18.6900 307.0000 1.0000
18.7000 300.0000 1.0000
18.7100 283.0000 1.0000
18.7200 308.0000 1.0000
18.7300 322.0000 1.0000
18.7400 284.0000 1.0000
18.7500 252.0000 1.0000
18.7600 283.0000 1.0000
18.7700 289.0000 1.0000
18.7800 275.0000 1.0000
18.7900 291.0000 1.0000
18.8000 316.0000 1.0000
18.8100 295.0000 1.0000
18.8200 301.0000 1.0000
18.8300 299.0000 1.0000
18.8400 302.0000 1.0000
18.8500 292.0000 1.0000
18.8600 293.0000 1.0000
18.8700 292.0000 1.0000
18.8800 303.0000 1.0000
18.8900 292.0000 1.0000
18.9000 263.0000 1.0000
18.9100 258.0000 1.0000
18.9200 284.0000 1.0000
18.9300 291.0000 1.0000
18.9400 282.0000 1.0000
18.9500 295.0000 1.0000
18.9600 255.0000 1.0000
18.9700 264.0000 1.0000
18.9800 300.0000 1.0000
18.9900 293.0000 1.0000
19.0000 278.0000 1.0000
19.0100 282.0000 1.0000
19.0200 292.0000 1.0000
19.0300 324.0000 1.0000
19.0400 285.0000 1.0000
19.0500 270.0000 1.0000
19.0600 287.0000 1.0000
19.0700 225.0000 1.0000
19.0800 281.0000 1.0000
19.0900 289.0000 1.0000
19.1000 276.0000 1.0000
19.1100 285.0000 1.0000
19.1200 272.0000 1.0000
19.1300 270.0000 1.0000
19.1400 250.0000 1.0000
19.1500 265.0000 1.0000
19.1600 245.0000 1.0000
19.1700 275.0000 1.0000
19.1800 305.0000 1.0000
19.1900 265.0000 1.0000
19.2000 295.0000 1.0000
19.2100 276.0000 1.0000
19.2200 283.0000 1.0000
19.2300 287.0000 1.0000
19.2400 264.0000 1.0000
19.2500 268.0000 1.0000
19.2600 256.0000 1.0000
19.2700 254.0000 1.0000
19.2800 277.0000 1.0000
19.2900 269.0000 1.0000
19.3000 275.0000 1.0000
19.3100 249.0000 1.0000
19.3200 295.0000 1.0000
19.3300 262.0000 1.0000
19.3400 279.0000 1.0000
19.3500 282.0000 1.0000
19.3600 260.0000 1.0000
19.3700 276.0000 1.0000
19.3800 245.0000 1.0000
19.3900 283.0000 1.0000
19.4000 303.0000 1.0000
19.4100 308.0000 1.0000
19.4200 276.0000 1.0000
19.4300 242.0000 1.0000
19.4400 274.0000 1.0000
19.4500 262.0000 1.0000
19.4600 240.0000 1.0000
19.4700 254.0000 1.0000
19.4800 273.0000 1.0000
19.4900 285.0000 1.0000
19.5000 248.0000 1.0000
19.5100 280.0000 1.0000
19.5200 249.0000 1.0000
19.5300 256.0000 1.0000
19.5400 267.0000 1.0000
19.5500 270.0000 1.0000
19.5600 261.0000 1.0000
19.5700 256.0000 1.0000
19.5800 290.0000 1.0000
19.5900 262.0000 1.0000
19.6000 264.0000 1.0000
19.6100 268.0000 1.0000
19.6200 227.0000 1.0000
19.6300 271.0000 1.0000
19.6400 292.0000 1.0000
19.6500 278.0000 1.0000
19.6600 240.0000 1.0000
19.6700 268.0000 1.0000
19.6800 251.0000 1.0000
19.6900 260.0000 1.0000
19.7000 236.0000 1.0000
19.7100 252.0000 1.0000
19.7200 259.0000 1.0000
19.7300 270.0000 1.0000
19.7400 274.0000 1.0000
19.7500 249.0000 1.0000
19.7600 281.0000 1.0000
19.7700 242.0000 1.0000
19.7800 262.0000 1.0000
19.7900 286.0000 1.0000
19.8000 249.0000 1.0000
19.8100 285.0000 1.0000
19.8200 219.0000 1.0000
19.8300 232.0000 1.0000
19.8400 253.0000 1.0000
19.8500 280.0000 1.0000
19.8600 233.0000 1.0000
19.8700 258.0000 1.0000
19.8800 275.0000 1.0000
19.8900 297.0000 1.0000
19.9000 245.0000 1.0000
19.9100 235.0000 1.0000
19.9200 238.0000 1.0000
19.9300 268.0000 1.0000
19.9400 240.0000 1.0000
19.9500 257.0000 1.0000
19.9600 250.0000 1.0000
19.9700 268.0000 1.0000
19.9800 242.0000 1.0000
19.9900 239.0000 1.0000
20.0000 235.0000 1.0000
20.0100 237.0000 1.0000
20.0200 251.0000 1.0000
20.0300 249.0000 1.0000
20.0400 256.0000 1.0000
20.0500 238.0000 1.0000
20.0600 236.0000 1.0000
20.0700 266.0000 1.0000
20.0800 249.0000 1.0000
20.0900 248.0000 1.0000
20.1000 251.0000 1.0000
20.1100 259.0000 1.0000
20.1200 246.0000 1.0000
20.1300 262.0000 1.0000
20.1400 241.0000 1.0000
20.1500 284.0000 1.0000
20.1600 247.0000 1.0000
20.1700 251.0000 1.0000
20.1800 281.0000 1.0000
20.1900 268.0000 1.0000
20.2000 247.0000 1.0000
20.2100 273.0000 1.0000
20.2200 256.0000 1.0000
20.2300 252.0000 1.0000
20.2400 234.0000 1.0000
20.2500 240.0000 1.0000
20.2600 249.0000 1.0000
20.2700 252.0000 1.0000
20.2800 237.0000 1.0000
20.2900 262.0000 1.0000
20.3000 234.0000 1.0000
20.3100 227.0000 1.0000
20.3200 263.0000 1.0000
20.3300 227.0000 1.0000
20.3400 256.0000 1.0000
20.3500 262.0000 1.0000
20.3600 229.0000 1.0000
20.3700 240.0000 1.0000
20.3800 239.0000 1.0000
20.3900 228.0000 1.0000
20.4000 223.0000 1.0000
20.4100 223.0000 1.0000
20.4200 211.0000 1.0000
20.4300 209.0000 1.0000
20.4400 216.0000 1.0000
20.4500 240.0000 1.0000
20.4600 239.0000 1.0000
20.4700 200.0000 1.0000
20.4800 230.0000 1.0000
20.4900 244.0000 1.0000
20.5000 231.0000 1.0000
20.5100 266.0000 1.0000
20.5200 232.0000 1.0000
20.5300 243.0000 1.0000
20.5400 244.0000 1.0000
20.5500 258.0000 1.0000
20.5600 234.0000 1.0000
20.5700 232.0000 1.0000
20.5800 236.0000 1.0000
20.5900 246.0000 1.0000
20.6000 243.0000 1.0000
20.6100 225.0000 1.0000
20.6200 253.0000 1.0000
20.6300 245.0000 1.0000
20.6400 242.0000 1.0000
20.6500 229.0000 1.0000
20.6600 211.0000 1.0000
20.6700 228.0000 1.0000
20.6800 243.0000 1.0000
20.6900 217.0000 1.0000
20.7000 241.0000 1.0000
20.7100 268.0000 1.0000
20.7200 227.0000 1.0000
20.7300 236.0000 1.0000
20.7400 240.0000 1.0000
20.7500 230.0000 1.0000
20.7600 233.0000 1.0000
20.7700 216.0000 1.0000
20.7800 251.0000 1.0000
20.7900 238.0000 1.0000
20.8000 259.0000 1.0000
20.8100 260.0000 1.0000
20.8200 215.0000 1.0000
20.8300 234.0000 1.0000
20.8400 226.0000 1.0000
20.8500 269.0000 1.0000
20.8600 238.0000 1.0000
20.8700 230.0000 1.0000
20.8800 235.0000 1.0000
20.8900 253.0000 1.0000
20.9000 233.0000 1.0000
20.9100 210.0000 1.0000
20.9200 258.0000 1.0000
20.9300 234.0000 1.0000
20.9400 221.0000 1.0000
20.9500 227.0000 1.0000
20.9600 213.0000 1.0000
20.9700 228.0000 1.0000
20.9800 226.0000 1.0000
20.9900 223.0000 1.0000
21.0000 222.0000 1.0000
21.0100 211.0000 1.0000
21.0200 212.0000 1.0000
21.0300 228.0000 1.0000
21.0400 215.0000 1.0000
21.0500 214.0000 1.0000
21.0600 215.0000 1.0000
21.0700 227.0000 1.0000
21.0800 228.0000 1.0000
21.0900 216.0000 1.0000
21.1000 192.0000 1.0000
21.1100 222.0000 1.0000
21.1200 223.0000 1.0000
21.1300 230.0000 1.0000
21.1400 225.0000 1.0000
21.1500 235.0000 1.0000
21.1600 208.0000 1.0000
21.1700 219.0000 1.0000
21.1800 240.0000 1.0000
21.1900 220.0000 1.0000
21.2000 224.0000 1.0000
21.2100 239.0000 1.0000
21.2200 245.0000 1.0000
21.2300 248.0000 1.0000
21.2400 211.0000 1.0000
21.2500 231.0000 1.0000
21.2600 205.0000 1.0000
21.2700 219.0000 1.0000
21.2800 247.0000 1.0000
21.2900 214.0000 1.0000
21.3000 210.0000 1.0000
21.3100 234.0000 1.0000
21.3200 234.0000 1.0000
21.3300 208.0000 1.0000
21.3400 231.0000 1.0000
21.3500 243.0000 1.0000
21.3600 224.0000 1.0000
21.3700 207.0000 1.0000
21.3800 208.0000 1.0000
21.3900 189.0000 1.0000
21.4000 221.0000 1.0000
21.4100 214.0000 1.0000
21.4200 232.0000 1.0000
21.4300 226.0000 1.0000
21.4400 194.0000 1.0000
21.4500 229.0000 1.0000
21.4600 203.0000 1.0000
21.4700 193.0000 1.0000
21.4800 217.0000 1.0000
21.4900 224.0000 1.0000
21.5000 225.0000 1.0000
21.5100 203.0000 1.0000
21.5200 218.0000 1.0000
21.5300 219.0000 1.0000
21.5400 214.0000 1.0000
21.5500 204.0000 1.0000
21.5600 230.0000 1.0000
21.5700 213.0000 1.0000
21.5800 227.0000 1.0000
21.5900 213.0000 1.0000
21.6000 229.0000 1.0000
21.6100 209.0000 1.0000
21.6200 221.0000 1.0000
21.6300 237.0000 1.0000
21.6400 219.0000 1.0000
21.6500 229.0000 1.0000
21.6600 178.0000 1.0000
21.6700 193.0000 1.0000
21.6800 235.0000 1.0000
21.6900 175.0000 1.0000
21.7000 206.0000 1.0000
21.7100 209.0000 1.0000
21.7200 206.0000 1.0000
21.7300 218.0000 1.0000
21.7400 214.0000 1.0000
21.7500 207.0000 1.0000
21.7600 223.0000 1.0000
21.7700 194.0000 1.0000
21.7800 203.0000 1.0000
21.7900 208.0000 1.0000
21.8000 210.0000 1.0000
21.8100 224.0000 1.0000
21.8200 215.0000 1.0000
21.8300 201.0000 1.0000
21.8400 191.0000 1.0000
21.8500 217.0000 1.0000
21.8600 209.0000 1.0000
21.8700 215.0000 1.0000
21.8800 188.0000 1.0000
21.8900 215.0000 1.0000
21.9000 210.0000 1.0000
21.9100 207.0000 1.0000
21.9200 193.0000 1.0000
21.9300 202.0000 1.0000
21.9400 211.0000 1.0000
21.9500 196.0000 1.0000
21.9600 224.0000 1.0000
21.9700 202.0000 1.0000
21.9800 171.0000 1.0000
21.9900 193.0000 1.0000
22.0000 199.0000 1.0000
22.0100 170.0000 1.0000
22.0200 195.0000 1.0000
22.0300 208.0000 1.0000
22.0400 173.0000 1.0000
22.0500 190.0000 1.0000
22.0600 212.0000 1.0000
22.0700 217.0000 1.0000
22.0800 228.0000 1.0000
22.0900 204.0000 1.0000
22.1000 223.0000 1.0000
22.1100 229.0000 1.0000
22.1200 188.0000 1.0000
22.1300 215.0000 1.0000
22.1400 181.0000 1.0000
22.1500 207.0000 1.0000
22.1600 186.0000 1.0000
22.1700 200.0000 1.0000
22.1800 201.0000 1.0000
22.1900 188.0000 1.0000
22.2000 218.0000 1.0000
22.2100 193.0000 1.0000
22.2200 175.0000 1.0000
22.2300 195.0000 1.0000
22.2400 187.0000 1.0000
22.2500 194.0000 1.0000
22.2600 201.0000 1.0000
22.2700 207.0000 1.0000
22.2800 199.0000 1.0000
22.2900 217.0000 1.0000
22.3000 217.0000 1.0000
22.3100 220.0000 1.0000
22.3200 183.0000 1.0000
22.3300 188.0000 1.0000
22.3400 188.0000 1.0000
22.3500 207.0000 1.0000
22.3600 213.0000 1.0000
22.3700 192.0000 1.0000
22.3800 197.0000 1.0000
22.3900 190.0000 1.0000
22.4000 184.0000 1.0000
22.4100 206.0000 1.0000
22.4200 172.0000 1.0000
22.4300 207.0000 1.0000
22.4400 190.0000 1.0000
22.4500 205.0000 1.0000
22.4600 193.0000 1.0000
22.4700 198.0000 1.0000
22.4800 191.0000 1.0000
22.4900 207.0000 1.0000
22.5000 194.0000 1.0000
22.5100 207.0000 1.0000
22.5200 187.0000 1.0000
22.5300 182.0000 1.0000
22.5400 200.0000 1.0000
22.5500 221.0000 1.0000
22.5600 172.0000 1.0000
22.5700 202.0000 1.0000
22.5800 192.0000 1.0000
22.5900 187.0000 1.0000
22.6000 199.0000 1.0000
22.6100 190.0000 1.0000
22.6200 188.0000 1.0000
22.6300 188.0000 1.0000
22.6400 210.0000 1.0000
22.6500 178.0000 1.0000
22.6600 195.0000 1.0000
22.6700 197.0000 1.0000
22.6800 198.0000 1.0000
22.6900 197.0000 1.0000
22.7000 172.0000 1.0000
22.7100 199.0000 1.0000
22.7200 210.0000 1.0000
22.7300 187.0000 1.0000
22.7400 181.0000 1.0000
22.7500 173.0000 1.0000
22.7600 181.0000 1.0000
22.7700 183.0000 1.0000
22.7800 186.0000 1.0000
22.7900 202.0000 1.0000
22.8000 200.0000 1.0000
22.8100 183.0000 1.0000
22.8200 181.0000 1.0000
22.8300 162.0000 1.0000
22.8400 187.0000 1.0000
22.8500 186.0000 1.0000
22.8600 219.0000 1.0000
22.8700 196.0000 1.0000
22.8800 159.0000 1.0000
22.8900 180.0000 1.0000
22.9000 172.0000 1.0000
22.9100 173.0000 1.0000
22.9200 190.0000 1.0000
22.9300 192.0000 1.0000
22.9400 186.0000 1.0000
22.9500 194.0000 1.0000
22.9600 169.0000 1.0000
22.9700 186.0000 1.0000
22.9800 199.0000 1.0000
22.9900 214.0000 1.0000
23.0000 198.0000 1.0000
23.0100 174.0000 1.0000
23.0200 174.0000 1.0000
23.0300 199.0000 1.0000
23.0400 168.0000 1.0000
23.0500 189.0000 1.0000
23.0600 211.0000 1.0000
23.0700 181.0000 1.0000
23.0800 165.0000 1.0000
23.0900 197.0000 1.0000
23.1000 175.0000 1.0000
23.1100 176.0000 1.0000
23.1200 210.0000 1.0000
23.1300 176.0000 1.0000
23.1400 196.0000 1.0000
23.1500 190.0000 1.0000
23.1600 189.0000 1.0000
23.1700 187.0000 1.0000
23.1800 188.0000 1.0000
23.1900 184.0000 1.0000
23.2000 170.0000 1.0000
23.2100 179.0000 1.0000
23.2200 180.0000 1.0000
23.2300 182.0000 1.0000
23.2400 183.0000 1.0000
23.2500 166.0000 1.0000
23.2600 163.0000 1.0000
23.2700 159.0000 1.0000
23.2800 200.0000 1.0000
23.2900 160.0000 1.0000
23.3000 199.0000 1.0000
23.3100 208.0000 1.0000
23.3200 199.0000 1.0000
23.3300 196.0000 1.0000
23.3400 180.0000 1.0000
23.3500 174.0000 1.0000
23.3600 164.0000 1.0000
23.3700 216.0000 1.0000
23.3800 181.0000 1.0000
23.3900 180.0000 1.0000
23.4000 183.0000 1.0000
23.4100 188.0000 1.0000
23.4200 177.0000 1.0000
23.4300 176.0000 1.0000
23.4400 194.0000 1.0000
23.4500 196.0000 1.0000
23.4600 208.0000 1.0000
23.4700 201.0000 1.0000
23.4800 174.0000 1.0000
23.4900 208.0000 1.0000
23.5000 149.0000 1.0000
23.5100 177.0000 1.0000
23.5200 182.0000 1.0000
23.5300 164.0000 1.0000
23.5400 194.0000 1.0000
23.5500 209.0000 1.0000
23.5600 208.0000 1.0000
23.5700 187.0000 1.0000
23.5800 189.0000 1.0000
23.5900 204.0000 1.0000
23.6000 202.0000 1.0000
23.6100 185.0000 1.0000
23.6200 202.0000 1.0000
23.6300 160.0000 1.0000
23.6400 200.0000 1.0000
23.6500 167.0000 1.0000
23.6600 179.0000 1.0000
23.6700 165.0000 1.0000
23.6800 190.0000 1.0000
23.6900 169.0000 1.0000
23.7000 177.0000 1.0000
23.7100 176.0000 1.0000
23.7200 170.0000 1.0000
23.7300 155.0000 1.0000
23.7400 178.0000 1.0000
23.7500 181.0000 1.0000
23.7600 156.0000 1.0000
23.7700 175.0000 1.0000
23.7800 161.0000 1.0000
23.7900 169.0000 1.0000
23.8000 180.0000 1.0000
23.8100 174.0000 1.0000
23.8200 173.0000 1.0000
23.8300 191.0000 1.0000
23.8400 161.0000 1.0000
23.8500 196.0000 1.0000
23.8600 178.0000 1.0000
23.8700 180.0000 1.0000
23.8800 183.0000 1.0000
23.8900 187.0000 1.0000
23.9000 170.0000 1.0000
23.9100 174.0000 1.0000
23.9200 169.0000 1.0000
23.9300 170.0000 1.0000
23.9400 175.0000 1.0000
23.9500 164.0000 1.0000
23.9600 177.0000 1.0000
23.9700 191.0000 1.0000
23.9800 189.0000 1.0000
23.9900 196.0000 1.0000
24.0000 174.0000 1.0000
24.0100 164.0000 1.0000
24.0200 177.0000 1.0000
24.0300 157.0000 1.0000
24.0400 158.0000 1.0000
24.0500 181.0000 1.0000
24.0600 202.0000 1.0000
24.0700 156.0000 1.0000
24.0800 172.0000 1.0000
24.0900 167.0000 1.0000
24.1000 181.0000 1.0000
24.1100 173.0000 1.0000
24.1200 154.0000 1.0000
24.1300 154.0000 1.0000
24.1400 178.0000 1.0000
24.1500 153.0000 1.0000
24.1600 189.0000 1.0000
24.1700 167.0000 1.0000
24.1800 177.0000 1.0000
24.1900 174.0000 1.0000
24.2000 189.0000 1.0000
24.2100 154.0000 1.0000
24.2200 141.0000 1.0000
24.2300 155.0000 1.0000
24.2400 164.0000 1.0000
24.2500 186.0000 1.0000
24.2600 180.0000 1.0000
24.2700 165.0000 1.0000
24.2800 146.0000 1.0000
24.2900 166.0000 1.0000
24.3000 169.0000 1.0000
24.3100 175.0000 1.0000
24.3200 177.0000 1.0000
24.3300 179.0000 1.0000
24.3400 158.0000 1.0000
24.3500 136.0000 1.0000
24.3600 184.0000 1.0000
24.3700 175.0000 1.0000
24.3800 169.0000 1.0000
24.3900 175.0000 1.0000
24.4000 162.0000 1.0000
24.4100 143.0000 1.0000
24.4200 183.0000 1.0000
24.4300 157.0000 1.0000
24.4400 152.0000 1.0000
24.4500 177.0000 1.0000
24.4600 153.0000 1.0000
24.4700 160.0000 1.0000
24.4800 161.0000 1.0000
24.4900 156.0000 1.0000
24.5000 165.0000 1.0000
24.5100 155.0000 1.0000
24.5200 193.0000 1.0000
24.5300 161.0000 1.0000
24.5400 168.0000 1.0000
24.5500 152.0000 1.0000
24.5600 179.0000 1.0000
24.5700 158.0000 1.0000
24.5800 176.0000 1.0000
24.5900 159.0000 1.0000
24.6000 154.0000 1.0000
24.6100 154.0000 1.0000
24.6200 168.0000 1.0000
24.6300 163.0000 1.0000
24.6400 179.0000 1.0000
24.6500 158.0000 1.0000
24.6600 165.0000 1.0000
24.6700 155.0000 1.0000
24.6800 162.0000 1.0000
24.6900 177.0000 1.0000
24.7000 156.0000 1.0000
24.7100 162.0000 1.0000
24.7200 150.0000 1.0000
24.7300 157.0000 1.0000
24.7400 180.0000 1.0000
24.7500 159.0000 1.0000
24.7600 161.0000 1.0000
24.7700 161.0000 1.0000
24.7800 152.0000 1.0000
24.7900 171.0000 1.0000
24.8000 166.0000 1.0000
24.8100 153.0000 1.0000
24.8200 141.0000 1.0000
24.8300 164.0000 1.0000
24.8400 165.0000 1.0000
24.8500 171.0000 1.0000
24.8600 170.0000 1.0000
24.8700 152.0000 1.0000
24.8800 167.0000 1.0000
24.8900 149.0000 1.0000
24.9000 152.0000 1.0000
24.9100 174.0000 1.0000
24.9200 159.0000 1.0000
24.9300 177.0000 1.0000
24.9400 168.0000 1.0000
24.9500 174.0000 1.0000
24.9600 156.0000 1.0000
24.9700 148.0000 1.0000
24.9800 151.0000 1.0000
24.9900 173.0000 1.0000
25.0000 153.0000 1.0000
25.0100 188.0000 1.0000
25.0200 172.0000 1.0000
25.0300 156.0000 1.0000
25.0400 172.0000 1.0000
25.0500 151.0000 1.0000
25.0600 155.0000 1.0000
25.0700 165.0000 1.0000
25.0800 177.0000 1.0000
25.0900 171.0000 1.0000
25.1000 166.0000 1.0000
25.1100 151.0000 1.0000
25.1200 148.0000 1.0000
25.1300 140.0000 1.0000
25.1400 156.0000 1.0000
25.1500 159.0000 1.0000
25.1600 151.0000 1.0000
25.1700 130.0000 1.0000
25.1800 138.0000 1.0000
25.1900 148.0000 1.0000
25.2000 171.0000 1.0000
25.2100 166.0000 1.0000
25.2200 162.0000 1.0000
25.2300 167.0000 1.0000
25.2400 165.0000 1.0000
25.2500 165.0000 1.0000
25.2600 152.0000 1.0000
25.2700 168.0000 1.0000
25.2800 187.0000 1.0000
25.2900 152.0000 1.0000
25.3000 169.0000 1.0000
25.3100 193.0000 1.0000
25.3200 175.0000 1.0000
25.3300 162.0000 1.0000
25.3400 155.0000 1.0000
25.3500 193.0000 1.0000
25.3600 195.0000 1.0000
25.3700 141.0000 1.0000
25.3800 173.0000 1.0000
25.3900 169.0000 1.0000
25.4000 157.0000 1.0000
25.4100 158.0000 1.0000
25.4200 152.0000 1.0000
25.4300 170.0000 1.0000
25.4400 154.0000 1.0000
25.4500 186.0000 1.0000
25.4600 186.0000 1.0000
25.4700 157.0000 1.0000
25.4800 180.0000 1.0000
25.4900 176.0000 1.0000
25.5000 164.0000 1.0000
25.5100 197.0000 1.0000
25.5200 173.0000 1.0000
25.5300 198.0000 1.0000
25.5400 170.0000 1.0000
25.5500 191.0000 1.0000
25.5600 198.0000 1.0000
25.5700 191.0000 1.0000
25.5800 187.0000 1.0000
25.5900 196.0000 1.0000
25.6000 171.0000 1.0000
25.6100 180.0000 1.0000
25.6200 187.0000 1.0000
25.6300 197.0000 1.0000
25.6400 190.0000 1.0000
25.6500 200.0000 1.0000
25.6600 174.0000 1.0000
25.6700 196.0000 1.0000
25.6800 191.0000 1.0000
25.6900 192.0000 1.0000
25.7000 217.0000 1.0000
25.7100 180.0000 1.0000
25.7200 190.0000 1.0000
25.7300 174.0000 1.0000
25.7400 184.0000 1.0000
25.7500 169.0000 1.0000
25.7600 190.0000 1.0000
25.7700 187.0000 1.0000
25.7800 189.0000 1.0000
25.7900 176.0000 1.0000
25.8000 193.0000 1.0000
25.8100 190.0000 1.0000
25.8200 181.0000 1.0000
25.8300 205.0000 1.0000
25.8400 174.0000 1.0000
25.8500 219.0000 1.0000
25.8600 181.0000 1.0000
25.8700 197.0000 1.0000
25.8800 212.0000 1.0000
25.8900 187.0000 1.0000
25.9000 234.0000 1.0000
25.9100 195.0000 1.0000
25.9200 231.0000 1.0000
25.9300 212.0000 1.0000
25.9400 260.0000 1.0000
25.9500 269.0000 1.0000
25.9600 290.0000 1.0000
25.9700 288.0000 1.0000
25.9800 291.0000 1.0000
25.9900 316.0000 1.0000
26.0000 341.0000 1.0000
26.0100 365.0000 1.0000
26.0200 397.0000 1.0000
26.0300 400.0000 1.0000
26.0400 484.0000 1.0000
26.0500 515.0000 1.0000
26.0600 529.0000 1.0000
26.0700 559.0000 1.0000
26.0800 587.0000 1.0000
26.0900 582.0000 1.0000
26.1000 624.0000 1.0000
26.1100 645.0000 1.0000
26.1200 634.0000 1.0000
26.1300 659.0000 1.0000
26.1400 617.0000 1.0000
26.1500 659.0000 1.0000
26.1600 648.0000 1.0000
26.1700 636.0000 1.0000
26.1800 618.0000 1.0000
26.1900 547.0000 1.0000
26.2000 555.0000 1.0000
26.2100 556.0000 1.0000
26.2200 539.0000 1.0000
26.2300 461.0000 1.0000
26.2400 407.0000 1.0000
26.2500 445.0000 1.0000
26.2600 375.0000 1.0000
26.2700 370.0000 1.0000
26.2800 301.0000 1.0000
26.2900 315.0000 1.0000
26.3000 257.0000 1.0000
26.3100 276.0000 1.0000
26.3200 269.0000 1.0000
26.3300 265.0000 1.0000
26.3400 227.0000 1.0000
26.3500 244.0000 1.0000
26.3600 203.0000 1.0000
26.3700 213.0000 1.0000
26.3800 194.0000 1.0000
26.3900 187.0000 1.0000
26.4000 186.0000 1.0000
26.4100 163.0000 1.0000
26.4200 175.0000 1.0000
26.4300 169.0000 1.0000
26.4400 156.0000 1.0000
26.4500 172.0000 1.0000
26.4600 170.0000 1.0000
26.4700 161.0000 1.0000
26.4800 168.0000 1.0000
26.4900 150.0000 1.0000
26.5000 170.0000 1.0000
26.5100 161.0000 1.0000
26.5200 144.0000 1.0000
26.5300 179.0000 1.0000
26.5400 148.0000 1.0000
26.5500 125.0000 1.0000
26.5600 141.0000 1.0000
26.5700 159.0000 1.0000
26.5800 129.0000 1.0000
26.5900 130.0000 1.0000
26.6000 136.0000 1.0000
26.6100 140.0000 1.0000
26.6200 141.0000 1.0000
26.6300 137.0000 1.0000
26.6400 135.0000 1.0000
26.6500 158.0000 1.0000
26.6600 153.0000 1.0000
26.6700 144.0000 1.0000
26.6800 144.0000 1.0000
26.6900 139.0000 1.0000
26.7000 132.0000 1.0000
26.7100 162.0000 1.0000
26.7200 150.0000 1.0000
26.7300 147.0000 1.0000
26.7400 153.0000 1.0000
26.7500 133.0000 1.0000
26.7600 145.0000 1.0000
26.7700 174.0000 1.0000
26.7800 143.0000 1.0000
26.7900 157.0000 1.0000
26.8000 131.0000 1.0000
26.8100 140.0000 1.0000
26.8200 136.0000 1.0000
26.8300 142.0000 1.0000
26.8400 161.0000 1.0000
26.8500 138.0000 1.0000
26.8600 134.0000 1.0000
26.8700 139.0000 1.0000
26.8800 140.0000 1.0000
26.8900 154.0000 1.0000
26.9000 142.0000 1.0000
26.9100 134.0000 1.0000
26.9200 144.0000 1.0000
26.9300 144.0000 1.0000
26.9400 140.0000 1.0000
26.9500 141.0000 1.0000
26.9600 121.0000 1.0000
26.9700 120.0000 1.0000
26.9800 127.0000 1.0000
26.9900 154.0000 1.0000
27.0000 140.0000 1.0000
27.0100 141.0000 1.0000
27.0200 147.0000 1.0000
27.0300 133.0000 1.0000
27.0400 107.0000 1.0000
27.0500 140.0000 1.0000
27.0600 143.0000 1.0000
27.0700 157.0000 1.0000
27.0800 127.0000 1.0000
27.0900 150.0000 1.0000
27.1000 134.0000 1.0000
27.1100 158.0000 1.0000
27.1200 130.0000 1.0000
27.1300 131.0000 1.0000
27.1400 135.0000 1.0000
27.1500 121.0000 1.0000
27.1600 147.0000 1.0000
27.1700 141.0000 1.0000
27.1800 126.0000 1.0000
27.1900 133.0000 1.0000
27.2000 125.0000 1.0000
27.2100 124.0000 1.0000
27.2200 126.0000 1.0000
27.2300 145.0000 1.0000
27.2400 116.0000 1.0000
27.2500 123.0000 1.0000
27.2600 125.0000 1.0000
27.2700 130.0000 1.0000
27.2800 167.0000 1.0000
27.2900 136.0000 1.0000
27.3000 123.0000 1.0000
27.3100 142.0000 1.0000
27.3200 126.0000 1.0000
27.3300 115.0000 1.0000
27.3400 133.0000 1.0000
27.3500 136.0000 1.0000
27.3600 147.0000 1.0000
27.3700 148.0000 1.0000
27.3800 152.0000 1.0000
27.3900 128.0000 1.0000
27.4000 126.0000 1.0000
27.4100 136.0000 1.0000
27.4200 128.0000 1.0000
27.4300 130.0000 1.0000
27.4400 146.0000 1.0000
27.4500 123.0000 1.0000
27.4600 131.0000 1.0000
27.4700 128.0000 1.0000
27.4800 122.0000 1.0000
27.4900 152.0000 1.0000
27.5000 121.0000 1.0000
27.5100 134.0000 1.0000
27.5200 150.0000 1.0000
27.5300 124.0000 1.0000
27.5400 105.0000 1.0000
27.5500 132.0000 1.0000
27.5600 141.0000 1.0000
27.5700 150.0000 1.0000
27.5800 131.0000 1.0000
27.5900 112.0000 1.0000
27.6000 128.0000 1.0000
27.6100 136.0000 1.0000
27.6200 128.0000 1.0000
27.6300 145.0000 1.0000
27.6400 140.0000 1.0000
27.6500 148.0000 1.0000
27.6600 111.0000 1.0000
27.6700 120.0000 1.0000
27.6800 117.0000 1.0000
27.6900 117.0000 1.0000
27.7000 106.0000 1.0000
27.7100 124.0000 1.0000
27.7200 111.0000 1.0000
27.7300 141.0000 1.0000
27.7400 131.0000 1.0000
27.7500 136.0000 1.0000
27.7600 139.0000 1.0000
27.7700 116.0000 1.0000
27.7800 137.0000 1.0000
27.7900 120.0000 1.0000
27.8000 115.0000 1.0000
27.8100 106.0000 1.0000
27.8200 109.0000 1.0000
27.8300 131.0000 1.0000
27.8400 103.0000 1.0000
27.8500 127.0000 1.0000
27.8600 109.0000 1.0000
27.8700 109.0000 1.0000
27.8800 112.0000 1.0000
27.8900 114.0000 1.0000
27.9000 110.0000 1.0000
27.9100 123.0000 1.0000
27.9200 109.0000 1.0000
27.9300 133.0000 1.0000
27.9400 109.0000 1.0000
27.9500 122.0000 1.0000
27.9600 118.0000 1.0000
27.9700 131.0000 1.0000
27.9800 109.0000 1.0000
27.9900 124.0000 1.0000
28.0000 120.0000 1.0000
28.0100 111.0000 1.0000
28.0200 132.0000 1.0000
28.0300 134.0000 1.0000
28.0400 114.0000 1.0000
28.0500 103.0000 1.0000
28.0600 128.0000 1.0000
28.0700 114.0000 1.0000
28.0800 105.0000 1.0000
28.0900 134.0000 1.0000
28.1000 122.0000 1.0000
28.1100 112.0000 1.0000
28.1200 95.0000 1.0000
28.1300 119.0000 1.0000
28.1400 136.0000 1.0000
28.1500 116.0000 1.0000
28.1600 109.0000 1.0000
28.1700 127.0000 1.0000
28.1800 125.0000 1.0000
28.1900 118.0000 1.0000
28.2000 113.0000 1.0000
28.2100 121.0000 1.0000
28.2200 118.0000 1.0000
28.2300 133.0000 1.0000
28.2400 131.0000 1.0000
28.2500 125.0000 1.0000
28.2600 135.0000 1.0000
28.2700 103.0000 1.0000
28.2800 111.0000 1.0000
28.2900 122.0000 1.0000
28.3000 115.0000 1.0000
28.3100 114.0000 1.0000
28.3200 115.0000 1.0000
28.3300 127.0000 1.0000
28.3400 119.0000 1.0000
28.3500 111.0000 1.0000
28.3600 128.0000 1.0000
28.3700 131.0000 1.0000
28.3800 117.0000 1.0000
28.3900 99.0000 1.0000
28.4000 137.0000 1.0000
28.4100 115.0000 1.0000
28.4200 110.0000 1.0000
28.4300 108.0000 1.0000
28.4400 116.0000 1.0000
28.4500 103.0000 1.0000
28.4600 107.0000 1.0000
28.4700 102.0000 1.0000
28.4800 128.0000 1.0000
28.4900 114.0000 1.0000
28.5000 123.0000 1.0000
28.5100 122.0000 1.0000
28.5200 109.0000 1.0000
28.5300 104.0000 1.0000
28.5400 107.0000 1.0000
28.5500 113.0000 1.0000
28.5600 115.0000 1.0000
28.5700 99.0000 1.0000
28.5800 114.0000 1.0000
28.5900 121.0000 1.0000
28.6000 109.0000 1.0000
28.6100 106.0000 1.0000
28.6200 114.0000 1.0000
28.6300 119.0000 1.0000
28.6400 107.0000 1.0000
28.6500 109.0000 1.0000
28.6600 108.0000 1.0000
28.6700 116.0000 1.0000
28.6800 120.0000 1.0000
28.6900 116.0000 1.0000
28.7000 103.0000 1.0000
28.7100 105.0000 1.0000
28.7200 113.0000 1.0000
28.7300 106.0000 1.0000
28.7400 102.0000 1.0000
28.7500 104.0000 1.0000
28.7600 88.0000 1.0000
28.7700 111.0000 1.0000
28.7800 118.0000 1.0000
28.7900 107.0000 1.0000
28.8000 106.0000 1.0000
28.8100 93.0000 1.0000
28.8200 106.0000 1.0000
28.8300 103.0000 1.0000
28.8400 117.0000 1.0000
28.8500 101.0000 1.0000
28.8600 112.0000 1.0000
28.8700 111.0000 1.0000
28.8800 117.0000 1.0000
28.8900 96.0000 1.0000
28.9000 116.0000 1.0000
28.9100 100.0000 1.0000
28.9200 96.0000 1.0000
28.9300 116.0000 1.0000
28.9400 103.0000 1.0000
28.9500 116.0000 1.0000
28.9600 87.0000 1.0000
28.9700 100.0000 1.0000
28.9800 103.0000 1.0000
28.9900 102.0000 1.0000
29.0000 101.0000 1.0000
29.0100 111.0000 1.0000
29.0200 128.0000 1.0000
29.0300 110.0000 1.0000
29.0400 94.0000 1.0000
29.0500 106.0000 1.0000
29.0600 110.0000 1.0000
29.0700 115.0000 1.0000
29.0800 101.0000 1.0000
29.0900 78.0000 1.0000
29.1000 103.0000 1.0000
29.1100 108.0000 1.0000
29.1200 121.0000 1.0000
29.1300 112.0000 1.0000
29.1400 98.0000 1.0000
29.1500 108.0000 1.0000
29.1600 105.0000 1.0000
29.1700 133.0000 1.0000
29.1800 111.0000 1.0000
29.1900 107.0000 1.0000
29.2000 100.0000 1.0000
29.2100 122.0000 1.0000
29.2200 116.0000 1.0000
29.2300 100.0000 1.0000
29.2400 115.0000 1.0000
29.2500 101.0000 1.0000
29.2600 114.0000 1.0000
29.2700 98.0000 1.0000
29.2800 115.0000 1.0000
29.2900 101.0000 1.0000
29.3000 103.0000 1.0000
29.3100 88.0000 1.0000
29.3200 107.0000 1.0000
29.3300 84.0000 1.0000
29.3400 87.0000 1.0000
29.3500 88.0000 1.0000
29.3600 112.0000 1.0000
29.3700 103.0000 1.0000
29.3800 111.0000 1.0000
29.3900 104.0000 1.0000
29.4000 100.0000 1.0000
29.4100 117.0000 1.0000
29.4200 107.0000 1.0000
29.4300 96.0000 1.0000
29.4400 116.0000 1.0000
29.4500 103.0000 1.0000
29.4600 82.0000 1.0000
29.4700 105.0000 1.0000
29.4800 103.0000 1.0000
29.4900 101.0000 1.0000
29.5000 120.0000 1.0000
29.5100 128.0000 1.0000
29.5200 93.0000 1.0000
29.5300 132.0000 1.0000
29.5400 122.0000 1.0000
29.5500 126.0000 1.0000
29.5600 117.0000 1.0000
29.5700 117.0000 1.0000
29.5800 125.0000 1.0000
29.5900 96.0000 1.0000
29.6000 138.0000 1.0000
29.6100 152.0000 1.0000
29.6200 126.0000 1.0000
29.6300 133.0000 1.0000
29.6400 136.0000 1.0000
29.6500 121.0000 1.0000
29.6600 150.0000 1.0000
29.6700 141.0000 1.0000
29.6800 136.0000 1.0000
29.6900 115.0000 1.0000
29.7000 125.0000 1.0000
29.7100 108.0000 1.0000
29.7200 142.0000 1.0000
29.7300 124.0000 1.0000
29.7400 108.0000 1.0000
29.7500 129.0000 1.0000
29.7600 106.0000 1.0000
29.7700 125.0000 1.0000
29.7800 128.0000 1.0000
29.7900 88.0000 1.0000
29.8000 110.0000 1.0000
29.8100 92.0000 1.0000
29.8200 102.0000 1.0000
29.8300 93.0000 1.0000
29.8400 97.0000 1.0000
29.8500 85.0000 1.0000
29.8600 92.0000 1.0000
29.8700 80.0000 1.0000
29.8800 102.0000 1.0000
29.8900 90.0000 1.0000
29.9000 88.0000 1.0000
29.9100 88.0000 1.0000
29.9200 113.0000 1.0000
29.9300 97.0000 1.0000
29.9400 90.0000 1.0000
29.9500 108.0000 1.0000
29.9600 95.0000 1.0000
29.9700 78.0000 1.0000
29.9800 95.0000 1.0000
29.9900 96.0000 1.0000
30.0000 84.0000 1.0000
30.0100 90.0000 1.0000
30.0200 99.0000 1.0000
30.0300 86.0000 1.0000
30.0400 104.0000 1.0000
30.0500 89.0000 1.0000
30.0600 96.0000 1.0000
30.0700 97.0000 1.0000
30.0800 103.0000 1.0000
30.0900 90.0000 1.0000
30.1000 86.0000 1.0000
30.1100 91.0000 1.0000
30.1200 101.0000 1.0000
30.1300 88.0000 1.0000
30.1400 107.0000 1.0000
30.1500 102.0000 1.0000
30.1600 93.0000 1.0000
30.1700 95.0000 1.0000
30.1800 101.0000 1.0000
30.1900 95.0000 1.0000
30.2000 85.0000 1.0000
30.2100 90.0000 1.0000
30.2200 78.0000 1.0000
30.2300 70.0000 1.0000
30.2400 89.0000 1.0000
30.2500 88.0000 1.0000
30.2600 80.0000 1.0000
30.2700 74.0000 1.0000
30.2800 86.0000 1.0000
30.2900 90.0000 1.0000
30.3000 95.0000 1.0000
30.3100 87.0000 1.0000
30.3200 83.0000 1.0000
30.3300 86.0000 1.0000
30.3400 87.0000 1.0000
30.3500 95.0000 1.0000
30.3600 103.0000 1.0000
30.3700 97.0000 1.0000
30.3800 83.0000 1.0000
30.3900 81.0000 1.0000
30.4000 93.0000 1.0000
30.4100 89.0000 1.0000
30.4200 82.0000 1.0000
30.4300 80.0000 1.0000
30.4400 66.0000 1.0000
30.4500 75.0000 1.0000
30.4600 99.0000 1.0000
30.4700 80.0000 1.0000
30.4800 104.0000 1.0000
30.4900 86.0000 1.0000
30.5000 73.0000 1.0000
30.5100 79.0000 1.0000
30.5200 89.0000 1.0000
30.5300 68.0000 1.0000
30.5400 80.0000 1.0000
30.5500 100.0000 1.0000
30.5600 91.0000 1.0000
30.5700 73.0000 1.0000
30.5800 86.0000 1.0000
30.5900 85.0000 1.0000
30.6000 90.0000 1.0000
30.6100 84.0000 1.0000
30.6200 88.0000 1.0000
30.6300 96.0000 1.0000
30.6400 106.0000 1.0000
30.6500 93.0000 1.0000
30.6600 75.0000 1.0000
30.6700 76.0000 1.0000
30.6800 72.0000 1.0000
30.6900 86.0000 1.0000
30.7000 89.0000 1.0000
30.7100 75.0000 1.0000
30.7200 85.0000 1.0000
30.7300 69.0000 1.0000
30.7400 92.0000 1.0000
30.7500 81.0000 1.0000
30.7600 82.0000 1.0000
30.7700 76.0000 1.0000
30.7800 84.0000 1.0000
30.7900 88.0000 1.0000
30.8000 67.0000 1.0000
30.8100 93.0000 1.0000
30.8200 68.0000 1.0000
30.8300 93.0000 1.0000
30.8400 76.0000 1.0000
30.8500 111.0000 1.0000
30.8600 93.0000 1.0000
30.8700 65.0000 1.0000
30.8800 78.0000 1.0000
30.8900 78.0000 1.0000
30.9000 78.0000 1.0000
30.9100 76.0000 1.0000
30.9200 82.0000 1.0000
30.9300 79.0000 1.0000
30.9400 79.0000 1.0000
30.9500 99.0000 1.0000
30.9600 75.0000 1.0000
30.9700 85.0000 1.0000
30.9800 78.0000 1.0000
30.9900 92.0000 1.0000
31.0000 87.0000 1.0000
31.0100 88.0000 1.0000
31.0200 83.0000 1.0000
31.0300 73.0000 1.0000
31.0400 93.0000 1.0000
31.0500 84.0000 1.0000
31.0600 95.0000 1.0000
31.0700 75.0000 1.0000
31.0800 70.0000 1.0000
31.0900 82.0000 1.0000
31.1000 90.0000 1.0000
31.1100 82.0000 1.0000
31.1200 68.0000 1.0000
31.1300 76.0000 1.0000
31.1400 93.0000 1.0000
31.1500 88.0000 1.0000
31.1600 77.0000 1.0000
31.1700 80.0000 1.0000
31.1800 72.0000 1.0000
31.1900 89.0000 1.0000
31.2000 72.0000 1.0000
31.2100 90.0000 1.0000
31.2200 73.0000 1.0000
31.2300 87.0000 1.0000
31.2400 83.0000 1.0000
31.2500 76.0000 1.0000
31.2600 70.0000 1.0000
31.2700 85.0000 1.0000
31.2800 73.0000 1.0000
31.2900 65.0000 1.0000
31.3000 76.0000 1.0000
31.3100 93.0000 1.0000
31.3200 75.0000 1.0000
31.3300 89.0000 1.0000
31.3400 72.0000 1.0000
31.3500 92.0000 1.0000
31.3600 67.0000 1.0000
31.3700 92.0000 1.0000
31.3800 84.0000 1.0000
31.3900 95.0000 1.0000
31.4000 78.0000 1.0000
31.4100 80.0000 1.0000
31.4200 63.0000 1.0000
31.4300 87.0000 1.0000
31.4400 84.0000 1.0000
31.4500 92.0000 1.0000
31.4600 91.0000 1.0000
31.4700 77.0000 1.0000
31.4800 70.0000 1.0000
31.4900 86.0000 1.0000
31.5000 89.0000 1.0000
31.5100 90.0000 1.0000
31.5200 80.0000 1.0000
31.5300 100.0000 1.0000
31.5400 91.0000 1.0000
31.5500 63.0000 1.0000
31.5600 85.0000 1.0000
31.5700 79.0000 1.0000
31.5800 81.0000 1.0000
31.5900 81.0000 1.0000
31.6000 78.0000 1.0000
31.6100 72.0000 1.0000
31.6200 72.0000 1.0000
31.6300 65.0000 1.0000
31.6400 69.0000 1.0000
31.6500 67.0000 1.0000
31.6600 81.0000 1.0000
31.6700 87.0000 1.0000
31.6800 64.0000 1.0000
31.6900 60.0000 1.0000
31.7000 66.0000 1.0000
31.7100 79.0000 1.0000
31.7200 59.0000 1.0000
31.7300 80.0000 1.0000
31.7400 63.0000 1.0000
31.7500 83.0000 1.0000
31.7600 64.0000 1.0000
31.7700 68.0000 1.0000
31.7800 72.0000 1.0000
31.7900 81.0000 1.0000
31.8000 67.0000 1.0000
31.8100 72.0000 1.0000
31.8200 78.0000 1.0000
31.8300 80.0000 1.0000
31.8400 91.0000 1.0000
31.8500 77.0000 1.0000
31.8600 67.0000 1.0000
31.8700 64.0000 1.0000
31.8800 89.0000 1.0000
31.8900 85.0000 1.0000
31.9000 70.0000 1.0000
31.9100 81.0000 1.0000
31.9200 70.0000 1.0000
31.9300 66.0000 1.0000
31.9400 70.0000 1.0000
31.9500 68.0000 1.0000
31.9600 79.0000 1.0000
31.9700 78.0000 1.0000
31.9800 90.0000 1.0000
31.9900 62.0000 1.0000
32.0000 63.0000 1.0000
32.0100 75.0000 1.0000
32.0200 94.0000 1.0000
32.0300 75.0000 1.0000
32.0400 70.0000 1.0000
32.0500 86.0000 1.0000
32.0600 62.0000 1.0000
32.0700 78.0000 1.0000
32.0800 76.0000 1.0000
32.0900 75.0000 1.0000
32.1000 72.0000 1.0000
32.1100 79.0000 1.0000
32.1200 57.0000 1.0000
32.1300 71.0000 1.0000
32.1400 84.0000 1.0000
32.1500 76.0000 1.0000
32.1600 78.0000 1.0000
32.1700 61.0000 1.0000
32.1800 79.0000 1.0000
32.1900 62.0000 1.0000
32.2000 77.0000 1.0000
32.2100 76.0000 1.0000
32.2200 71.0000 1.0000
32.2300 71.0000 1.0000
32.2400 65.0000 1.0000
32.2500 65.0000 1.0000
32.2600 63.0000 1.0000
32.2700 82.0000 1.0000
32.2800 75.0000 1.0000
32.2900 89.0000 1.0000
32.3000 64.0000 1.0000
32.3100 74.0000 1.0000
32.3200 89.0000 1.0000
32.3300 55.0000 1.0000
32.3400 62.0000 1.0000
32.3500 75.0000 1.0000
32.3600 79.0000 1.0000
32.3700 70.0000 1.0000
32.3800 70.0000 1.0000
32.3900 77.0000 1.0000
32.4000 79.0000 1.0000
32.4100 60.0000 1.0000
32.4200 62.0000 1.0000
32.4300 70.0000 1.0000
32.4400 90.0000 1.0000
32.4500 68.0000 1.0000
32.4600 67.0000 1.0000
32.4700 59.0000 1.0000
32.4800 87.0000 1.0000
32.4900 77.0000 1.0000
32.5000 62.0000 1.0000
32.5100 64.0000 1.0000
32.5200 68.0000 1.0000
32.5300 70.0000 1.0000
32.5400 69.0000 1.0000
32.5500 75.0000 1.0000
32.5600 73.0000 1.0000
32.5700 81.0000 1.0000
32.5800 74.0000 1.0000
32.5900 82.0000 1.0000
32.6000 71.0000 1.0000
32.6100 63.0000 1.0000
32.6200 73.0000 1.0000
32.6300 60.0000 1.0000
32.6400 74.0000 1.0000
32.6500 82.0000 1.0000
32.6600 81.0000 1.0000
32.6700 68.0000 1.0000
32.6800 81.0000 1.0000
32.6900 74.0000 1.0000
32.7000 60.0000 1.0000
32.7100 77.0000 1.0000
32.7200 62.0000 1.0000
32.7300 64.0000 1.0000
32.7400 58.0000 1.0000
32.7500 78.0000 1.0000
32.7600 68.0000 1.0000
32.7700 69.0000 1.0000
32.7800 71.0000 1.0000
32.7900 71.0000 1.0000
32.8000 52.0000 1.0000
32.8100 68.0000 1.0000
32.8200 73.0000 1.0000
32.8300 61.0000 1.0000
32.8400 68.0000 1.0000
32.8500 67.0000 1.0000
32.8600 63.0000 1.0000
32.8700 74.0000 1.0000
32.8800 74.0000 1.0000
32.8900 87.0000 1.0000
32.9000 58.0000 1.0000
32.9100 69.0000 1.0000
32.9200 62.0000 1.0000
32.9300 73.0000 1.0000
32.9400 55.0000 1.0000
32.9500 68.0000 1.0000
32.9600 57.0000 1.0000
32.9700 73.0000 1.0000
32.9800 62.0000 1.0000
32.9900 62.0000 1.0000
33.0000 77.0000 1.0000
33.0100 65.0000 1.0000
33.0200 80.0000 1.0000
33.0300 72.0000 1.0000
33.0400 66.0000 1.0000
33.0500 88.0000 1.0000
33.0600 60.0000 1.0000
33.0700 72.0000 1.0000
33.0800 75.0000 1.0000
33.0900 69.0000 1.0000
33.1000 77.0000 1.0000
33.1100 76.0000 1.0000
33.1200 56.0000 1.0000
33.1300 70.0000 1.0000
33.1400 66.0000 1.0000
33.1500 63.0000 1.0000
33.1600 58.0000 1.0000
33.1700 60.0000 1.0000
33.1800 65.0000 1.0000
33.1900 62.0000 1.0000
33.2000 61.0000 1.0000
33.2100 66.0000 1.0000
33.2200 65.0000 1.0000
33.2300 70.0000 1.0000
33.2400 60.0000 1.0000
33.2500 50.0000 1.0000
33.2600 75.0000 1.0000
33.2700 61.0000 1.0000
33.2800 67.0000 1.0000
33.2900 81.0000 1.0000
33.3000 66.0000 1.0000
33.3100 71.0000 1.0000
33.3200 74.0000 1.0000
33.3300 69.0000 1.0000
33.3400 52.0000 1.0000
33.3500 62.0000 1.0000
33.3600 48.0000 1.0000
33.3700 70.0000 1.0000
33.3800 71.0000 1.0000
33.3900 56.0000 1.0000
33.4000 77.0000 1.0000
33.4100 58.0000 1.0000
33.4200 68.0000 1.0000
33.4300 66.0000 1.0000
33.4400 63.0000 1.0000
33.4500 61.0000 1.0000
33.4600 79.0000 1.0000
33.4700 63.0000 1.0000
33.4800 77.0000 1.0000
33.4900 57.0000 1.0000
33.5000 79.0000 1.0000
33.5100 65.0000 1.0000
33.5200 55.0000 1.0000
33.5300 67.0000 1.0000
33.5400 67.0000 1.0000
33.5500 68.0000 1.0000
33.5600 59.0000 1.0000
33.5700 85.0000 1.0000
33.5800 65.0000 1.0000
33.5900 76.0000 1.0000
33.6000 58.0000 1.0000
33.6100 64.0000 1.0000
33.6200 65.0000 1.0000
33.6300 58.0000 1.0000
33.6400 68.0000 1.0000
33.6500 79.0000 1.0000
33.6600 86.0000 1.0000
33.6700 59.0000 1.0000
33.6800 72.0000 1.0000
33.6900 80.0000 1.0000
33.7000 62.0000 1.0000
33.7100 68.0000 1.0000
33.7200 62.0000 1.0000
33.7300 84.0000 1.0000
33.7400 61.0000 1.0000
33.7500 72.0000 1.0000
33.7600 60.0000 1.0000
33.7700 57.0000 1.0000
33.7800 53.0000 1.0000
33.7900 76.0000 1.0000
33.8000 61.0000 1.0000
33.8100 68.0000 1.0000
33.8200 65.0000 1.0000
33.8300 62.0000 1.0000
33.8400 66.0000 1.0000
33.8500 70.0000 1.0000
33.8600 55.0000 1.0000
33.8700 76.0000 1.0000
33.8800 72.0000 1.0000
33.8900 69.0000 1.0000
33.9000 71.0000 1.0000
33.9100 67.0000 1.0000
33.9200 67.0000 1.0000
33.9300 61.0000 1.0000
33.9400 51.0000 1.0000
33.9500 63.0000 1.0000
33.9600 49.0000 1.0000
33.9700 61.0000 1.0000
33.9800 73.0000 1.0000
33.9900 64.0000 1.0000
34.0000 61.0000 1.0000
34.0100 64.0000 1.0000
34.0200 54.0000 1.0000
34.0300 62.0000 1.0000
34.0400 69.0000 1.0000
34.0500 70.0000 1.0000
34.0600 70.0000 1.0000
34.0700 71.0000 1.0000
34.0800 60.0000 1.0000
34.0900 53.0000 1.0000
34.1000 58.0000 1.0000
34.1100 64.0000 1.0000
34.1200 64.0000 1.0000
34.1300 62.0000 1.0000
34.1400 85.0000 1.0000
34.1500 63.0000 1.0000
34.1600 49.0000 1.0000
34.1700 43.0000 1.0000
34.1800 62.0000 1.0000
34.1900 81.0000 1.0000
34.2000 62.0000 1.0000
34.2100 58.0000 1.0000
34.2200 67.0000 1.0000
34.2300 65.0000 1.0000
34.2400 75.0000 1.0000
34.2500 66.0000 1.0000
34.2600 57.0000 1.0000
34.2700 64.0000 1.0000
34.2800 74.0000 1.0000
34.2900 54.0000 1.0000
34.3000 76.0000 1.0000
34.3100 77.0000 1.0000
34.3200 56.0000 1.0000
34.3300 57.0000 1.0000
34.3400 53.0000 1.0000
34.3500 61.0000 1.0000
34.3600 64.0000 1.0000
34.3700 66.0000 1.0000
34.3800 79.0000 1.0000
34.3900 66.0000 1.0000
34.4000 50.0000 1.0000
34.4100 53.0000 1.0000
34.4200 57.0000 1.0000
34.4300 62.0000 1.0000
34.4400 69.0000 1.0000
34.4500 65.0000 1.0000
34.4600 58.0000 1.0000
34.4700 69.0000 1.0000
34.4800 78.0000 1.0000
34.4900 56.0000 1.0000
34.5000 74.0000 1.0000
34.5100 58.0000 1.0000
34.5200 58.0000 1.0000
34.5300 71.0000 1.0000
34.5400 68.0000 1.0000
34.5500 75.0000 1.0000
34.5600 65.0000 1.0000
34.5700 62.0000 1.0000
34.5800 54.0000 1.0000
34.5900 65.0000 1.0000
34.6000 47.0000 1.0000
34.6100 68.0000 1.0000
34.6200 66.0000 1.0000
34.6300 53.0000 1.0000
34.6400 55.0000 1.0000
34.6500 60.0000 1.0000
34.6600 62.0000 1.0000
34.6700 65.0000 1.0000
34.6800 52.0000 1.0000
34.6900 60.0000 1.0000
34.7000 75.0000 1.0000
34.7100 57.0000 1.0000
34.7200 64.0000 1.0000
34.7300 59.0000 1.0000
34.7400 54.0000 1.0000
34.7500 70.0000 1.0000
34.7600 65.0000 1.0000
34.7700 63.0000 1.0000
34.7800 60.0000 1.0000
34.7900 65.0000 1.0000
34.8000 60.0000 1.0000
34.8100 77.0000 1.0000
34.8200 66.0000 1.0000
34.8300 57.0000 1.0000
34.8400 62.0000 1.0000
34.8500 58.0000 1.0000
34.8600 45.0000 1.0000
34.8700 76.0000 1.0000
34.8800 60.0000 1.0000
34.8900 47.0000 1.0000
34.9000 60.0000 1.0000
34.9100 60.0000 1.0000
34.9200 68.0000 1.0000
34.9300 65.0000 1.0000
34.9400 56.0000 1.0000
34.9500 54.0000 1.0000
34.9600 68.0000 1.0000
34.9700 71.0000 1.0000
34.9800 68.0000 1.0000
34.9900 52.0000 1.0000
35.0000 68.0000 1.0000
35.0100 49.0000 1.0000
35.0200 63.0000 1.0000
35.0300 69.0000 1.0000
35.0400 55.0000 1.0000
35.0500 53.0000 1.0000
35.0600 57.0000 1.0000
35.0700 60.0000 1.0000
35.0800 48.0000 1.0000
35.0900 60.0000 1.0000
35.1000 63.0000 1.0000
35.1100 48.0000 1.0000
35.1200 56.0000 1.0000
35.1300 59.0000 1.0000
35.1400 66.0000 1.0000
35.1500 44.0000 1.0000
35.1600 53.0000 1.0000
35.1700 62.0000 1.0000
35.1800 63.0000 1.0000
35.1900 44.0000 1.0000
35.2000 57.0000 1.0000
35.2100 61.0000 1.0000
35.2200 59.0000 1.0000
35.2300 54.0000 1.0000
35.2400 40.0000 1.0000
35.2500 56.0000 1.0000
35.2600 54.0000 1.0000
35.2700 58.0000 1.0000
35.2800 53.0000 1.0000
35.2900 57.0000 1.0000
35.3000 58.0000 1.0000
35.3100 47.0000 1.0000
35.3200 59.0000 1.0000
35.3300 61.0000 1.0000
35.3400 51.0000 1.0000
35.3500 64.0000 1.0000
35.3600 61.0000 1.0000
35.3700 51.0000 1.0000
35.3800 75.0000 1.0000
35.3900 50.0000 1.0000
35.4000 60.0000 1.0000
35.4100 66.0000 1.0000
35.4200 48.0000 1.0000
35.4300 54.0000 1.0000
35.4400 61.0000 1.0000
35.4500 64.0000 1.0000
35.4600 63.0000 1.0000
35.4700 63.0000 1.0000
35.4800 57.0000 1.0000
35.4900 55.0000 1.0000
35.5000 59.0000 1.0000
35.5100 64.0000 1.0000
35.5200 72.0000 1.0000
35.5300 62.0000 1.0000
35.5400 56.0000 1.0000
35.5500 65.0000 1.0000
35.5600 63.0000 1.0000
35.5700 45.0000 1.0000
35.5800 58.0000 1.0000
35.5900 51.0000 1.0000
35.6000 72.0000 1.0000
35.6100 71.0000 1.0000
35.6200 64.0000 1.0000
35.6300 63.0000 1.0000
35.6400 64.0000 1.0000
35.6500 59.0000 1.0000
35.6600 55.0000 1.0000
35.6700 57.0000 1.0000
35.6800 77.0000 1.0000
35.6900 73.0000 1.0000
35.7000 56.0000 1.0000
35.7100 59.0000 1.0000
35.7200 43.0000 1.0000
35.7300 64.0000 1.0000
35.7400 41.0000 1.0000
35.7500 52.0000 1.0000
35.7600 54.0000 1.0000
35.7700 49.0000 1.0000
35.7800 52.0000 1.0000
35.7900 48.0000 1.0000
35.8000 54.0000 1.0000
35.8100 50.0000 1.0000
35.8200 53.0000 1.0000
35.8300 75.0000 1.0000
35.8400 69.0000 1.0000
35.8500 51.0000 1.0000
35.8600 60.0000 1.0000
35.8700 63.0000 1.0000
35.8800 60.0000 1.0000
35.8900 65.0000 1.0000
35.9000 57.0000 1.0000
35.9100 65.0000 1.0000
35.9200 68.0000 1.0000
35.9300 48.0000 1.0000
35.9400 55.0000 1.0000
35.9500 55.0000 1.0000
35.9600 66.0000 1.0000
35.9700 68.0000 1.0000
35.9800 63.0000 1.0000
35.9900 38.0000 1.0000
36.0000 43.0000 1.0000
36.0100 54.0000 1.0000
36.0200 68.0000 1.0000
36.0300 54.0000 1.0000
36.0400 49.0000 1.0000
36.0500 59.0000 1.0000
36.0600 63.0000 1.0000
36.0700 43.0000 1.0000
36.0800 56.0000 1.0000
36.0900 60.0000 1.0000
36.1000 43.0000 1.0000
36.1100 59.0000 1.0000
36.1200 45.0000 1.0000
36.1300 62.0000 1.0000
36.1400 65.0000 1.0000
36.1500 63.0000 1.0000
36.1600 46.0000 1.0000
36.1700 74.0000 1.0000
36.1800 50.0000 1.0000
36.1900 59.0000 1.0000
36.2000 67.0000 1.0000
36.2100 43.0000 1.0000
36.2200 57.0000 1.0000
36.2300 60.0000 1.0000
36.2400 46.0000 1.0000
36.2500 64.0000 1.0000
36.2600 56.0000 1.0000
36.2700 64.0000 1.0000
36.2800 49.0000 1.0000
36.2900 54.0000 1.0000
36.3000 49.0000 1.0000
36.3100 65.0000 1.0000
36.3200 66.0000 1.0000
36.3300 33.0000 1.0000
36.3400 56.0000 1.0000
36.3500 75.0000 1.0000
36.3600 54.0000 1.0000
36.3700 66.0000 1.0000
36.3800 49.0000 1.0000
36.3900 60.0000 1.0000
36.4000 49.0000 1.0000
36.4100 57.0000 1.0000
36.4200 43.0000 1.0000
36.4300 53.0000 1.0000
36.4400 49.0000 1.0000
36.4500 54.0000 1.0000
36.4600 58.0000 1.0000
36.4700 59.0000 1.0000
36.4800 71.0000 1.0000
36.4900 57.0000 1.0000
36.5000 51.0000 1.0000
36.5100 60.0000 1.0000
36.5200 62.0000 1.0000
36.5300 68.0000 1.0000
36.5400 48.0000 1.0000
36.5500 51.0000 1.0000
36.5600 47.0000 1.0000
36.5700 55.0000 1.0000
36.5800 58.0000 1.0000
36.5900 43.0000 1.0000
36.6000 57.0000 1.0000
36.6100 59.0000 1.0000
36.6200 55.0000 1.0000
36.6300 56.0000 1.0000
36.6400 63.0000 1.0000
36.6500 63.0000 1.0000
36.6600 60.0000 1.0000
36.6700 52.0000 1.0000
36.6800 64.0000 1.0000
36.6900 54.0000 1.0000
36.7000 75.0000 1.0000
36.7100 64.0000 1.0000
36.7200 54.0000 1.0000
36.7300 57.0000 1.0000
36.7400 77.0000 1.0000
36.7500 42.0000 1.0000
36.7600 61.0000 1.0000
36.7700 58.0000 1.0000
36.7800 67.0000 1.0000
36.7900 64.0000 1.0000
36.8000 57.0000 1.0000
36.8100 62.0000 1.0000
36.8200 68.0000 1.0000
36.8300 50.0000 1.0000
36.8400 50.0000 1.0000
36.8500 53.0000 1.0000
36.8600 63.0000 1.0000
36.8700 68.0000 1.0000
36.8800 60.0000 1.0000
36.8900 73.0000 1.0000
36.9000 72.0000 1.0000
36.9100 60.0000 1.0000
36.9200 72.0000 1.0000
36.9300 74.0000 1.0000
36.9400 77.0000 1.0000
36.9500 70.0000 1.0000
36.9600 74.0000 1.0000
36.9700 68.0000 1.0000
36.9800 77.0000 1.0000
36.9900 74.0000 1.0000
37.0000 78.0000 1.0000
37.0100 75.0000 1.0000
37.0200 61.0000 1.0000
37.0300 87.0000 1.0000
37.0400 53.0000 1.0000
37.0500 84.0000 1.0000
37.0600 88.0000 1.0000
37.0700 77.0000 1.0000
37.0800 91.0000 1.0000
37.0900 93.0000 1.0000
37.1000 93.0000 1.0000
37.1100 77.0000 1.0000
37.1200 86.0000 1.0000
37.1300 105.0000 1.0000
37.1400 114.0000 1.0000
37.1500 99.0000 1.0000
37.1600 107.0000 1.0000
37.1700 107.0000 1.0000
37.1800 109.0000 1.0000
37.1900 108.0000 1.0000
37.2000 130.0000 1.0000
37.2100 134.0000 1.0000
37.2200 150.0000 1.0000
37.2300 144.0000 1.0000
37.2400 151.0000 1.0000
37.2500 132.0000 1.0000
37.2600 175.0000 1.0000
37.2700 189.0000 1.0000
37.2800 169.0000 1.0000
37.2900 182.0000 1.0000
37.3000 205.0000 1.0000
37.3100 187.0000 1.0000
37.3200 206.0000 1.0000
37.3300 180.0000 1.0000
37.3400 253.0000 1.0000
37.3500 197.0000 1.0000
37.3600 205.0000 1.0000
37.3700 184.0000 1.0000
37.3800 210.0000 1.0000
37.3900 204.0000 1.0000
37.4000 196.0000 1.0000
37.4100 204.0000 1.0000
37.4200 188.0000 1.0000
37.4300 188.0000 1.0000
37.4400 180.0000 1.0000
37.4500 176.0000 1.0000
37.4600 170.0000 1.0000
37.4700 173.0000 1.0000
37.4800 140.0000 1.0000
37.4900 133.0000 1.0000
37.5000 116.0000 1.0000
37.5100 114.0000 1.0000
37.5200 116.0000 1.0000
37.5300 125.0000 1.0000
37.5400 112.0000 1.0000
37.5500 105.0000 1.0000
37.5600 94.0000 1.0000
37.5700 101.0000 1.0000
37.5800 96.0000 1.0000
37.5900 90.0000 1.0000
37.6000 78.0000 1.0000
37.6100 86.0000 1.0000
37.6200 64.0000 1.0000
37.6300 63.0000 1.0000
37.6400 86.0000 1.0000
37.6500 71.0000 1.0000
37.6600 58.0000 1.0000
37.6700 60.0000 1.0000
37.6800 56.0000 1.0000
37.6900 64.0000 1.0000
37.7000 68.0000 1.0000
37.7100 64.0000 1.0000
37.7200 55.0000 1.0000
37.7300 70.0000 1.0000
37.7400 77.0000 1.0000
37.7500 55.0000 1.0000
37.7600 72.0000 1.0000
37.7700 36.0000 1.0000
37.7800 50.0000 1.0000
37.7900 74.0000 1.0000
37.8000 55.0000 1.0000
37.8100 71.0000 1.0000
37.8200 58.0000 1.0000
37.8300 55.0000 1.0000
37.8400 59.0000 1.0000
37.8500 51.0000 1.0000
37.8600 56.0000 1.0000
37.8700 56.0000 1.0000
37.8800 54.0000 1.0000
37.8900 63.0000 1.0000
37.9000 48.0000 1.0000
37.9100 67.0000 1.0000
37.9200 36.0000 1.0000
37.9300 56.0000 1.0000
37.9400 68.0000 1.0000
37.9500 71.0000 1.0000
37.9600 43.0000 1.0000
37.9700 59.0000 1.0000
37.9800 71.0000 1.0000
37.9900 70.0000 1.0000
38.0000 54.0000 1.0000
38.0100 67.0000 1.0000
38.0200 48.0000 1.0000
38.0300 47.0000 1.0000
38.0400 64.0000 1.0000
38.0500 55.0000 1.0000
38.0600 53.0000 1.0000
38.0700 50.0000 1.0000
38.0800 50.0000 1.0000
38.0900 62.0000 1.0000
38.1000 61.0000 1.0000
38.1100 49.0000 1.0000
38.1200 68.0000 1.0000
38.1300 69.0000 1.0000
38.1400 60.0000 1.0000
38.1500 50.0000 1.0000
38.1600 47.0000 1.0000
38.1700 55.0000 1.0000
38.1800 51.0000 1.0000
38.1900 65.0000 1.0000
38.2000 50.0000 1.0000
38.2100 40.0000 1.0000
38.2200 62.0000 1.0000
38.2300 54.0000 1.0000
38.2400 44.0000 1.0000
38.2500 70.0000 1.0000
38.2600 52.0000 1.0000
38.2700 58.0000 1.0000
38.2800 47.0000 1.0000
38.2900 43.0000 1.0000
38.3000 59.0000 1.0000
38.3100 53.0000 1.0000
38.3200 63.0000 1.0000
38.3300 49.0000 1.0000
38.3400 47.0000 1.0000
38.3500 44.0000 1.0000
38.3600 48.0000 1.0000
38.3700 46.0000 1.0000
38.3800 49.0000 1.0000
38.3900 47.0000 1.0000
38.4000 49.0000 1.0000
38.4100 58.0000 1.0000
38.4200 47.0000 1.0000
38.4300 61.0000 1.0000
38.4400 49.0000 1.0000
38.4500 56.0000 1.0000
38.4600 56.0000 1.0000
38.4700 56.0000 1.0000
38.4800 56.0000 1.0000
38.4900 52.0000 1.0000
38.5000 43.0000 1.0000
38.5100 53.0000 1.0000
38.5200 50.0000 1.0000
38.5300 57.0000 1.0000
38.5400 53.0000 1.0000
38.5500 60.0000 1.0000
38.5600 59.0000 1.0000
38.5700 39.0000 1.0000
38.5800 42.0000 1.0000
38.5900 46.0000 1.0000
38.6000 39.0000 1.0000
38.6100 46.0000 1.0000
38.6200 60.0000 1.0000
38.6300 46.0000 1.0000
38.6400 57.0000 1.0000
38.6500 50.0000 1.0000
38.6600 46.0000 1.0000
38.6700 41.0000 1.0000
38.6800 50.0000 1.0000
38.6900 66.0000 1.0000
38.7000 47.0000 1.0000
38.7100 46.0000 1.0000
38.7200 43.0000 1.0000
38.7300 51.0000 1.0000
38.7400 50.0000 1.0000
38.7500 53.0000 1.0000
38.7600 57.0000 1.0000
38.7700 60.0000 1.0000
38.7800 51.0000 1.0000
38.7900 51.0000 1.0000
38.8000 48.0000 1.0000
38.8100 54.0000 1.0000
38.8200 46.0000 1.0000
38.8300 54.0000 1.0000
38.8400 50.0000 1.0000
38.8500 65.0000 1.0000
38.8600 66.0000 1.0000
38.8700 56.0000 1.0000
38.8800 57.0000 1.0000
38.8900 42.0000 1.0000
38.9000 47.0000 1.0000
38.9100 50.0000 1.0000
38.9200 51.0000 1.0000
38.9300 58.0000 1.0000
38.9400 56.0000 1.0000
38.9500 48.0000 1.0000
38.9600 52.0000 1.0000
38.9700 49.0000 1.0000
38.9800 44.0000 1.0000
38.9900 40.0000 1.0000
39.0000 42.0000 1.0000
39.0100 63.0000 1.0000
39.0200 49.0000 1.0000
39.0300 55.0000 1.0000
39.0400 51.0000 1.0000
39.0500 57.0000 1.0000
39.0600 40.0000 1.0000
39.0700 45.0000 1.0000
39.0800 55.0000 1.0000
39.0900 63.0000 1.0000
39.1000 40.0000 1.0000
39.1100 51.0000 1.0000
39.1200 38.0000 1.0000
39.1300 62.0000 1.0000
39.1400 48.0000 1.0000
39.1500 56.0000 1.0000
39.1600 60.0000 1.0000
39.1700 46.0000 1.0000
39.1800 59.0000 1.0000
39.1900 65.0000 1.0000
39.2000 51.0000 1.0000
39.2100 45.0000 1.0000
39.2200 43.0000 1.0000
39.2300 48.0000 1.0000
39.2400 45.0000 1.0000
39.2500 67.0000 1.0000
39.2600 43.0000 1.0000
39.2700 56.0000 1.0000
39.2800 54.0000 1.0000
39.2900 49.0000 1.0000
39.3000 42.0000 1.0000
39.3100 43.0000 1.0000
39.3200 53.0000 1.0000
39.3300 57.0000 1.0000
39.3400 48.0000 1.0000
39.3500 43.0000 1.0000
39.3600 45.0000 1.0000
39.3700 65.0000 1.0000
39.3800 35.0000 1.0000
39.3900 41.0000 1.0000
39.4000 52.0000 1.0000
39.4100 56.0000 1.0000
39.4200 59.0000 1.0000
39.4300 46.0000 1.0000
39.4400 51.0000 1.0000
39.4500 50.0000 1.0000
39.4600 36.0000 1.0000
39.4700 42.0000 1.0000
39.4800 43.0000 1.0000
39.4900 54.0000 1.0000
39.5000 48.0000 1.0000
39.5100 60.0000 1.0000
39.5200 55.0000 1.0000
39.5300 50.0000 1.0000
39.5400 40.0000 1.0000
39.5500 44.0000 1.0000
39.5600 37.0000 1.0000
39.5700 46.0000 1.0000
39.5800 51.0000 1.0000
39.5900 55.0000 1.0000
39.6000 47.0000 1.0000
39.6100 49.0000 1.0000
39.6200 56.0000 1.0000
39.6300 43.0000 1.0000
39.6400 51.0000 1.0000
39.6500 52.0000 1.0000
39.6600 46.0000 1.0000
39.6700 56.0000 1.0000
39.6800 50.0000 1.0000
39.6900 48.0000 1.0000
39.7000 53.0000 1.0000
39.7100 62.0000 1.0000
39.7200 48.0000 1.0000
39.7300 42.0000 1.0000
39.7400 47.0000 1.0000
39.7500 45.0000 1.0000
39.7600 48.0000 1.0000
39.7700 54.0000 1.0000
39.7800 48.0000 1.0000
39.7900 54.0000 1.0000
39.8000 51.0000 1.0000
39.8100 46.0000 1.0000
39.8200 39.0000 1.0000
39.8300 44.0000 1.0000
39.8400 37.0000 1.0000
39.8500 49.0000 1.0000
39.8600 45.0000 1.0000
39.8700 46.0000 1.0000
39.8800 62.0000 1.0000
39.8900 50.0000 1.0000
39.9000 35.0000 1.0000
39.9100 52.0000 1.0000
39.9200 41.0000 1.0000
39.9300 49.0000 1.0000
39.9400 46.0000 1.0000
39.9500 53.0000 1.0000
39.9600 46.0000 1.0000
39.9700 50.0000 1.0000
39.9800 46.0000 1.0000
39.9900 55.0000 1.0000
40.0000 46.0000 1.0000
40.0100 38.0000 1.0000
40.0200 40.0000 1.0000
40.0300 48.0000 1.0000
40.0400 53.0000 1.0000
40.0500 34.0000 1.0000
40.0600 45.0000 1.0000
40.0700 45.0000 1.0000
40.0800 44.0000 1.0000
40.0900 50.0000 1.0000
40.1000 49.0000 1.0000
40.1100 48.0000 1.0000
40.1200 44.0000 1.0000
40.1300 58.0000 1.0000
40.1400 43.0000 1.0000
40.1500 48.0000 1.0000
40.1600 38.0000 1.0000
40.1700 52.0000 1.0000
40.1800 43.0000 1.0000
40.1900 54.0000 1.0000
40.2000 47.0000 1.0000
40.2100 46.0000 1.0000
40.2200 51.0000 1.0000
40.2300 48.0000 1.0000
40.2400 43.0000 1.0000
40.2500 50.0000 1.0000
40.2600 50.0000 1.0000
40.2700 62.0000 1.0000
40.2800 50.0000 1.0000
40.2900 39.0000 1.0000
40.3000 50.0000 1.0000
40.3100 47.0000 1.0000
40.3200 59.0000 1.0000
40.3300 46.0000 1.0000
40.3400 54.0000 1.0000
40.3500 48.0000 1.0000
40.3600 53.0000 1.0000
40.3700 51.0000 1.0000
40.3800 46.0000 1.0000
40.3900 45.0000 1.0000
40.4000 40.0000 1.0000
40.4100 45.0000 1.0000
40.4200 55.0000 1.0000
40.4300 47.0000 1.0000
40.4400 51.0000 1.0000
40.4500 70.0000 1.0000
40.4600 39.0000 1.0000
40.4700 57.0000 1.0000
40.4800 29.0000 1.0000
40.4900 45.0000 1.0000
40.5000 50.0000 1.0000
40.5100 45.0000 1.0000
40.5200 61.0000 1.0000
40.5300 53.0000 1.0000
40.5400 42.0000 1.0000
40.5500 63.0000 1.0000
40.5600 52.0000 1.0000
40.5700 50.0000 1.0000
40.5800 37.0000 1.0000
40.5900 48.0000 1.0000
40.6000 58.0000 1.0000
40.6100 55.0000 1.0000
40.6200 43.0000 1.0000
40.6300 40.0000 1.0000
40.6400 64.0000 1.0000
40.6500 36.0000 1.0000
40.6600 47.0000 1.0000
40.6700 52.0000 1.0000
40.6800 43.0000 1.0000
40.6900 46.0000 1.0000
40.7000 51.0000 1.0000
40.7100 41.0000 1.0000
40.7200 48.0000 1.0000
40.7300 33.0000 1.0000
40.7400 41.0000 1.0000
40.7500 37.0000 1.0000
40.7600 54.0000 1.0000
40.7700 47.0000 1.0000
40.7800 47.0000 1.0000
40.7900 50.0000 1.0000
40.8000 49.0000 1.0000
40.8100 53.0000 1.0000
40.8200 47.0000 1.0000
40.8300 57.0000 1.0000
40.8400 43.0000 1.0000
40.8500 48.0000 1.0000
40.8600 45.0000 1.0000
40.8700 42.0000 1.0000
40.8800 38.0000 1.0000
40.8900 55.0000 1.0000
40.9000 52.0000 1.0000
40.9100 49.0000 1.0000
40.9200 46.0000 1.0000
40.9300 55.0000 1.0000
40.9400 50.0000 1.0000
40.9500 47.0000 1.0000
40.9600 34.0000 1.0000
40.9700 43.0000 1.0000
40.9800 36.0000 1.0000
40.9900 43.0000 1.0000
41.0000 50.0000 1.0000
41.0100 53.0000 1.0000
41.0200 37.0000 1.0000
41.0300 50.0000 1.0000
41.0400 53.0000 1.0000
41.0500 57.0000 1.0000
41.0600 49.0000 1.0000
41.0700 41.0000 1.0000
41.0800 44.0000 1.0000
41.0900 45.0000 1.0000
41.1000 54.0000 1.0000
41.1100 52.0000 1.0000
41.1200 58.0000 1.0000
41.1300 49.0000 1.0000
41.1400 52.0000 1.0000
41.1500 42.0000 1.0000
41.1600 45.0000 1.0000
41.1700 55.0000 1.0000
41.1800 41.0000 1.0000
41.1900 48.0000 1.0000
41.2000 55.0000 1.0000
41.2100 61.0000 1.0000
41.2200 51.0000 1.0000
41.2300 44.0000 1.0000
41.2400 60.0000 1.0000
41.2500 49.0000 1.0000
41.2600 46.0000 1.0000
41.2700 49.0000 1.0000
41.2800 40.0000 1.0000
41.2900 57.0000 1.0000
41.3000 51.0000 1.0000
41.3100 44.0000 1.0000
41.3200 43.0000 1.0000
41.3300 37.0000 1.0000
41.3400 49.0000 1.0000
41.3500 47.0000 1.0000
41.3600 60.0000 1.0000
41.3700 51.0000 1.0000
41.3800 44.0000 1.0000
41.3900 65.0000 1.0000
41.4000 40.0000 1.0000
41.4100 49.0000 1.0000
41.4200 61.0000 1.0000
41.4300 43.0000 1.0000
41.4400 49.0000 1.0000
41.4500 48.0000 1.0000
41.4600 55.0000 1.0000
41.4700 49.0000 1.0000
41.4800 42.0000 1.0000
41.4900 48.0000 1.0000
41.5000 48.0000 1.0000
41.5100 44.0000 1.0000
41.5200 42.0000 1.0000
41.5300 44.0000 1.0000
41.5400 40.0000 1.0000
41.5500 40.0000 1.0000
41.5600 44.0000 1.0000
41.5700 36.0000 1.0000
41.5800 48.0000 1.0000
41.5900 61.0000 1.0000
41.6000 65.0000 1.0000
41.6100 58.0000 1.0000
41.6200 53.0000 1.0000
41.6300 59.0000 1.0000
41.6400 32.0000 1.0000
41.6500 33.0000 1.0000
41.6600 53.0000 1.0000
41.6700 36.0000 1.0000
41.6800 45.0000 1.0000
41.6900 47.0000 1.0000
41.7000 49.0000 1.0000
41.7100 38.0000 1.0000
41.7200 56.0000 1.0000
41.7300 42.0000 1.0000
41.7400 51.0000 1.0000
41.7500 39.0000 1.0000
41.7600 43.0000 1.0000
41.7700 56.0000 1.0000
41.7800 52.0000 1.0000
41.7900 54.0000 1.0000
41.8000 41.0000 1.0000
41.8100 57.0000 1.0000
41.8200 58.0000 1.0000
41.8300 49.0000 1.0000
41.8400 57.0000 1.0000
41.8500 48.0000 1.0000
41.8600 49.0000 1.0000
41.8700 54.0000 1.0000
41.8800 51.0000 1.0000
41.8900 60.0000 1.0000
41.9000 64.0000 1.0000
41.9100 56.0000 1.0000
41.9200 59.0000 1.0000
41.9300 56.0000 1.0000
41.9400 63.0000 1.0000
41.9500 75.0000 1.0000
41.9600 71.0000 1.0000
41.9700 60.0000 1.0000
41.9800 52.0000 1.0000
41.9900 55.0000 1.0000
42.0000 66.0000 1.0000
42.0100 62.0000 1.0000
42.0200 56.0000 1.0000
42.0300 44.0000 1.0000
42.0400 51.0000 1.0000
42.0500 57.0000 1.0000
42.0600 60.0000 1.0000
42.0700 61.0000 1.0000
42.0800 52.0000 1.0000
42.0900 74.0000 1.0000
42.1000 48.0000 1.0000
42.1100 41.0000 1.0000
42.1200 59.0000 1.0000
42.1300 54.0000 1.0000
42.1400 48.0000 1.0000
42.1500 51.0000 1.0000
42.1600 56.0000 1.0000
42.1700 43.0000 1.0000
42.1800 55.0000 1.0000
42.1900 46.0000 1.0000
42.2000 44.0000 1.0000
42.2100 48.0000 1.0000
42.2200 44.0000 1.0000
42.2300 57.0000 1.0000
42.2400 42.0000 1.0000
42.2500 58.0000 1.0000
42.2600 66.0000 1.0000
42.2700 52.0000 1.0000
42.2800 49.0000 1.0000
42.2900 46.0000 1.0000
42.3000 51.0000 1.0000
42.3100 61.0000 1.0000
42.3200 61.0000 1.0000
42.3300 53.0000 1.0000
42.3400 53.0000 1.0000
42.3500 74.0000 1.0000
42.3600 49.0000 1.0000
42.3700 50.0000 1.0000
42.3800 65.0000 1.0000
42.3900 55.0000 1.0000
42.4000 56.0000 1.0000
42.4100 60.0000 1.0000
42.4200 56.0000 1.0000
42.4300 64.0000 1.0000
42.4400 70.0000 1.0000
42.4500 65.0000 1.0000
42.4600 77.0000 1.0000
42.4700 74.0000 1.0000
42.4800 68.0000 1.0000
42.4900 67.0000 1.0000
42.5000 50.0000 1.0000
42.5100 59.0000 1.0000
42.5200 54.0000 1.0000
42.5300 67.0000 1.0000
42.5400 67.0000 1.0000
42.5500 54.0000 1.0000
42.5600 71.0000 1.0000
42.5700 61.0000 1.0000
42.5800 70.0000 1.0000
42.5900 57.0000 1.0000
42.6000 64.0000 1.0000
42.6100 56.0000 1.0000
42.6200 51.0000 1.0000
42.6300 51.0000 1.0000
42.6400 62.0000 1.0000
42.6500 57.0000 1.0000
42.6600 52.0000 1.0000
42.6700 51.0000 1.0000
42.6800 52.0000 1.0000
42.6900 32.0000 1.0000
42.7000 49.0000 1.0000
42.7100 53.0000 1.0000
42.7200 62.0000 1.0000
42.7300 39.0000 1.0000
42.7400 49.0000 1.0000
42.7500 61.0000 1.0000
42.7600 39.0000 1.0000
42.7700 38.0000 1.0000
42.7800 33.0000 1.0000
42.7900 49.0000 1.0000
42.8000 57.0000 1.0000
42.8100 50.0000 1.0000
42.8200 52.0000 1.0000
42.8300 54.0000 1.0000
42.8400 41.0000 1.0000
42.8500 44.0000 1.0000
42.8600 51.0000 1.0000
42.8700 47.0000 1.0000
42.8800 40.0000 1.0000
42.8900 50.0000 1.0000
42.9000 32.0000 1.0000
42.9100 48.0000 1.0000
42.9200 51.0000 1.0000
42.9300 34.0000 1.0000
42.9400 54.0000 1.0000
42.9500 47.0000 1.0000
42.9600 54.0000 1.0000
42.9700 46.0000 1.0000
42.9800 51.0000 1.0000
42.9900 46.0000 1.0000
43.0000 41.0000 1.0000
43.0100 44.0000 1.0000
43.0200 45.0000 1.0000
43.0300 36.0000 1.0000
43.0400 42.0000 1.0000
43.0500 51.0000 1.0000
43.0600 51.0000 1.0000
43.0700 38.0000 1.0000
43.0800 46.0000 1.0000
43.0900 47.0000 1.0000
43.1000 53.0000 1.0000
43.1100 55.0000 1.0000
43.1200 45.0000 1.0000
43.1300 61.0000 1.0000
43.1400 38.0000 1.0000
43.1500 36.0000 1.0000
43.1600 42.0000 1.0000
43.1700 44.0000 1.0000
43.1800 45.0000 1.0000
43.1900 56.0000 1.0000
43.2000 44.0000 1.0000
43.2100 43.0000 1.0000
43.2200 48.0000 1.0000
43.2300 53.0000 1.0000
43.2400 47.0000 1.0000
43.2500 43.0000 1.0000
43.2600 39.0000 1.0000
43.2700 44.0000 1.0000
43.2800 38.0000 1.0000
43.2900 48.0000 1.0000
43.3000 49.0000 1.0000
43.3100 37.0000 1.0000
43.3200 64.0000 1.0000
43.3300 44.0000 1.0000
43.3400 55.0000 1.0000
43.3500 45.0000 1.0000
43.3600 38.0000 1.0000
43.3700 38.0000 1.0000
43.3800 41.0000 1.0000
43.3900 47.0000 1.0000
43.4000 38.0000 1.0000
43.4100 37.0000 1.0000
43.4200 50.0000 1.0000
43.4300 49.0000 1.0000
43.4400 50.0000 1.0000
43.4500 36.0000 1.0000
43.4600 45.0000 1.0000
43.4700 41.0000 1.0000
43.4800 51.0000 1.0000
43.4900 52.0000 1.0000
43.5000 35.0000 1.0000
43.5100 50.0000 1.0000
43.5200 35.0000 1.0000
43.5300 48.0000 1.0000
43.5400 44.0000 1.0000
43.5500 34.0000 1.0000
43.5600 37.0000 1.0000
43.5700 49.0000 1.0000
43.5800 47.0000 1.0000
43.5900 48.0000 1.0000
43.6000 50.0000 1.0000
43.6100 53.0000 1.0000
43.6200 44.0000 1.0000
43.6300 40.0000 1.0000
43.6400 44.0000 1.0000
43.6500 39.0000 1.0000
43.6600 45.0000 1.0000
43.6700 49.0000 1.0000
43.6800 37.0000 1.0000
43.6900 46.0000 1.0000
43.7000 45.0000 1.0000
43.7100 47.0000 1.0000
43.7200 46.0000 1.0000
43.7300 53.0000 1.0000
43.7400 46.0000 1.0000
43.7500 38.0000 1.0000
43.7600 37.0000 1.0000
43.7700 47.0000 1.0000
43.7800 43.0000 1.0000
43.7900 44.0000 1.0000
43.8000 50.0000 1.0000
43.8100 49.0000 1.0000
43.8200 51.0000 1.0000
43.8300 40.0000 1.0000
43.8400 46.0000 1.0000
43.8500 45.0000 1.0000
43.8600 61.0000 1.0000
43.8700 43.0000 1.0000
43.8800 36.0000 1.0000
43.8900 33.0000 1.0000
43.9000 56.0000 1.0000
43.9100 56.0000 1.0000
43.9200 42.0000 1.0000
43.9300 55.0000 1.0000
43.9400 39.0000 1.0000
43.9500 41.0000 1.0000
43.9600 47.0000 1.0000
43.9700 47.0000 1.0000
43.9800 44.0000 1.0000
43.9900 50.0000 1.0000
44.0000 47.0000 1.0000
44.0100 46.0000 1.0000
44.0200 57.0000 1.0000
44.0300 50.0000 1.0000
44.0400 52.0000 1.0000
44.0500 43.0000 1.0000
44.0600 51.0000 1.0000
44.0700 44.0000 1.0000
44.0800 44.0000 1.0000
44.0900 48.0000 1.0000
44.1000 40.0000 1.0000
44.1100 43.0000 1.0000
44.1200 45.0000 1.0000
44.1300 40.0000 1.0000
44.1400 38.0000 1.0000
44.1500 39.0000 1.0000
44.1600 60.0000 1.0000
44.1700 45.0000 1.0000
44.1800 50.0000 1.0000
44.1900 51.0000 1.0000
44.2000 37.0000 1.0000
44.2100 38.0000 1.0000
44.2200 40.0000 1.0000
44.2300 52.0000 1.0000
44.2400 53.0000 1.0000
44.2500 52.0000 1.0000
44.2600 51.0000 1.0000
44.2700 41.0000 1.0000
44.2800 29.0000 1.0000
44.2900 50.0000 1.0000
44.3000 43.0000 1.0000
44.3100 34.0000 1.0000
44.3200 45.0000 1.0000
44.3300 49.0000 1.0000
44.3400 60.0000 1.0000
44.3500 37.0000 1.0000
44.3600 43.0000 1.0000
44.3700 41.0000 1.0000
44.3800 34.0000 1.0000
44.3900 35.0000 1.0000
44.4000 46.0000 1.0000
44.4100 38.0000 1.0000
44.4200 53.0000 1.0000
44.4300 42.0000 1.0000
44.4400 48.0000 1.0000
44.4500 56.0000 1.0000
44.4600 54.0000 1.0000
44.4700 45.0000 1.0000
44.4800 52.0000 1.0000
44.4900 39.0000 1.0000
44.5000 39.0000 1.0000
44.5100 47.0000 1.0000
44.5200 52.0000 1.0000
44.5300 52.0000 1.0000
44.5400 32.0000 1.0000
44.5500 54.0000 1.0000
44.5600 44.0000 1.0000
44.5700 31.0000 1.0000
44.5800 41.0000 1.0000
44.5900 40.0000 1.0000
44.6000 54.0000 1.0000
44.6100 52.0000 1.0000
44.6200 39.0000 1.0000
44.6300 53.0000 1.0000
44.6400 52.0000 1.0000
44.6500 45.0000 1.0000
44.6600 51.0000 1.0000
44.6700 47.0000 1.0000
44.6800 49.0000 1.0000
44.6900 37.0000 1.0000
44.7000 34.0000 1.0000
44.7100 57.0000 1.0000
44.7200 41.0000 1.0000
44.7300 61.0000 1.0000
44.7400 42.0000 1.0000
44.7500 42.0000 1.0000
44.7600 31.0000 1.0000
44.7700 42.0000 1.0000
44.7800 40.0000 1.0000
44.7900 36.0000 1.0000
44.8000 31.0000 1.0000
44.8100 34.0000 1.0000
44.8200 59.0000 1.0000
44.8300 71.0000 1.0000
44.8400 57.0000 1.0000
44.8500 39.0000 1.0000
44.8600 49.0000 1.0000
44.8700 40.0000 1.0000
44.8800 43.0000 1.0000
44.8900 47.0000 1.0000
44.9000 53.0000 1.0000
44.9100 51.0000 1.0000
44.9200 37.0000 1.0000
44.9300 46.0000 1.0000
44.9400 49.0000 1.0000
44.9500 42.0000 1.0000
44.9600 29.0000 1.0000
44.9700 47.0000 1.0000
44.9800 40.0000 1.0000
44.9900 44.0000 1.0000
45.0000 57.0000 1.0000
45.0100 59.0000 1.0000
45.0200 42.0000 1.0000
45.0300 40.0000 1.0000
45.0400 57.0000 1.0000
45.0500 56.0000 1.0000
45.0600 44.0000 1.0000
45.0700 38.0000 1.0000
45.0800 55.0000 1.0000
45.0900 37.0000 1.0000
45.1000 48.0000 1.0000
45.1100 38.0000 1.0000
45.1200 49.0000 1.0000
45.1300 39.0000 1.0000
45.1400 43.0000 1.0000
45.1500 63.0000 1.0000
45.1600 49.0000 1.0000
45.1700 40.0000 1.0000
45.1800 35.0000 1.0000
45.1900 43.0000 1.0000
45.2000 52.0000 1.0000
45.2100 42.0000 1.0000
45.2200 50.0000 1.0000
45.2300 56.0000 1.0000
45.2400 28.0000 1.0000
45.2500 47.0000 1.0000
45.2600 33.0000 1.0000
45.2700 54.0000 1.0000
45.2800 56.0000 1.0000
45.2900 47.0000 1.0000
45.3000 39.0000 1.0000
45.3100 47.0000 1.0000
45.3200 49.0000 1.0000
45.3300 30.0000 1.0000
45.3400 42.0000 1.0000
45.3500 43.0000 1.0000
45.3600 51.0000 1.0000
45.3700 53.0000 1.0000
45.3800 43.0000 1.0000
45.3900 49.0000 1.0000
45.4000 52.0000 1.0000
45.4100 61.0000 1.0000
45.4200 48.0000 1.0000
45.4300 35.0000 1.0000
45.4400 45.0000 1.0000
45.4500 56.0000 1.0000
45.4600 51.0000 1.0000
45.4700 48.0000 1.0000
45.4800 48.0000 1.0000
45.4900 31.0000 1.0000
45.5000 48.0000 1.0000
45.5100 43.0000 1.0000
45.5200 38.0000 1.0000
45.5300 42.0000 1.0000
45.5400 35.0000 1.0000
45.5500 40.0000 1.0000
45.5600 54.0000 1.0000
45.5700 43.0000 1.0000
45.5800 50.0000 1.0000
45.5900 42.0000 1.0000
45.6000 48.0000 1.0000
45.6100 42.0000 1.0000
45.6200 45.0000 1.0000
45.6300 49.0000 1.0000
45.6400 48.0000 1.0000
45.6500 41.0000 1.0000
45.6600 42.0000 1.0000
45.6700 43.0000 1.0000
45.6800 55.0000 1.0000
45.6900 44.0000 1.0000
45.7000 52.0000 1.0000
45.7100 47.0000 1.0000
45.7200 52.0000 1.0000
45.7300 47.0000 1.0000
45.7400 64.0000 1.0000
45.7500 53.0000 1.0000
45.7600 61.0000 1.0000
45.7700 80.0000 1.0000
45.7800 54.0000 1.0000
45.7900 57.0000 1.0000
45.8000 88.0000 1.0000
45.8100 66.0000 1.0000
45.8200 58.0000 1.0000
45.8300 68.0000 1.0000
45.8400 62.0000 1.0000
45.8500 73.0000 1.0000
45.8600 65.0000 1.0000
45.8700 64.0000 1.0000
45.8800 64.0000 1.0000
45.8900 74.0000 1.0000
45.9000 77.0000 1.0000
45.9100 75.0000 1.0000
45.9200 70.0000 1.0000
45.9300 86.0000 1.0000
45.9400 85.0000 1.0000
45.9500 91.0000 1.0000
45.9600 94.0000 1.0000
45.9700 98.0000 1.0000
45.9800 99.0000 1.0000
45.9900 104.0000 1.0000
46.0000 126.0000 1.0000
46.0100 116.0000 1.0000
46.0200 141.0000 1.0000
46.0300 156.0000 1.0000
46.0400 127.0000 1.0000
46.0500 152.0000 1.0000
46.0600 152.0000 1.0000
46.0700 180.0000 1.0000
46.0800 148.0000 1.0000
46.0900 174.0000 1.0000
46.1000 174.0000 1.0000
46.1100 192.0000 1.0000
46.1200 187.0000 1.0000
46.1300 207.0000 1.0000
46.1400 218.0000 1.0000
46.1500 195.0000 1.0000
46.1600 176.0000 1.0000
46.1700 234.0000 1.0000
46.1800 203.0000 1.0000
46.1900 189.0000 1.0000
46.2000 217.0000 1.0000
46.2100 177.0000 1.0000
46.2200 192.0000 1.0000
46.2300 178.0000 1.0000
46.2400 178.0000 1.0000
46.2500 176.0000 1.0000
46.2600 173.0000 1.0000
46.2700 153.0000 1.0000
46.2800 152.0000 1.0000
46.2900 146.0000 1.0000
46.3000 148.0000 1.0000
46.3100 141.0000 1.0000
46.3200 118.0000 1.0000
46.3300 117.0000 1.0000
46.3400 119.0000 1.0000
46.3500 120.0000 1.0000
46.3600 114.0000 1.0000
46.3700 96.0000 1.0000
46.3800 107.0000 1.0000
46.3900 85.0000 1.0000
46.4000 74.0000 1.0000
46.4100 70.0000 1.0000
46.4200 80.0000 1.0000
46.4300 98.0000 1.0000
46.4400 71.0000 1.0000
46.4500 76.0000 1.0000
46.4600 47.0000 1.0000
46.4700 78.0000 1.0000
46.4800 90.0000 1.0000
46.4900 53.0000 1.0000
46.5000 62.0000 1.0000
46.5100 61.0000 1.0000
46.5200 61.0000 1.0000
46.5300 60.0000 1.0000
46.5400 52.0000 1.0000
46.5500 53.0000 1.0000
46.5600 54.0000 1.0000
46.5700 62.0000 1.0000
46.5800 61.0000 1.0000
46.5900 52.0000 1.0000
46.6000 53.0000 1.0000
46.6100 42.0000 1.0000
46.6200 50.0000 1.0000
46.6300 42.0000 1.0000
46.6400 55.0000 1.0000
46.6500 49.0000 1.0000
46.6600 50.0000 1.0000
46.6700 42.0000 1.0000
46.6800 53.0000 1.0000
46.6900 46.0000 1.0000
46.7000 57.0000 1.0000
46.7100 49.0000 1.0000
46.7200 39.0000 1.0000
46.7300 60.0000 1.0000
46.7400 48.0000 1.0000
46.7500 52.0000 1.0000
46.7600 45.0000 1.0000
46.7700 54.0000 1.0000
46.7800 47.0000 1.0000
46.7900 48.0000 1.0000
46.8000 43.0000 1.0000
46.8100 43.0000 1.0000
46.8200 45.0000 1.0000
46.8300 47.0000 1.0000
46.8400 46.0000 1.0000
46.8500 45.0000 1.0000
46.8600 55.0000 1.0000
46.8700 34.0000 1.0000
46.8800 39.0000 1.0000
46.8900 41.0000 1.0000
46.9000 42.0000 1.0000
46.9100 43.0000 1.0000
46.9200 46.0000 1.0000
46.9300 40.0000 1.0000
46.9400 28.0000 1.0000
46.9500 55.0000 1.0000
46.9600 30.0000 1.0000
46.9700 41.0000 1.0000
46.9800 42.0000 1.0000
46.9900 36.0000 1.0000
47.0000 52.0000 1.0000
47.0100 37.0000 1.0000
47.0200 52.0000 1.0000
47.0300 52.0000 1.0000
47.0400 43.0000 1.0000
47.0500 46.0000 1.0000
47.0600 55.0000 1.0000
47.0700 47.0000 1.0000
47.0800 40.0000 1.0000
47.0900 55.0000 1.0000
47.1000 40.0000 1.0000
47.1100 33.0000 1.0000
47.1200 58.0000 1.0000
47.1300 54.0000 1.0000
47.1400 43.0000 1.0000
47.1500 50.0000 1.0000
47.1600 56.0000 1.0000
47.1700 39.0000 1.0000
47.1800 39.0000 1.0000
47.1900 41.0000 1.0000
47.2000 44.0000 1.0000
47.2100 37.0000 1.0000
47.2200 49.0000 1.0000
47.2300 33.0000 1.0000
47.2400 44.0000 1.0000
47.2500 56.0000 1.0000
47.2600 33.0000 1.0000
47.2700 24.0000 1.0000
47.2800 49.0000 1.0000
47.2900 50.0000 1.0000
47.3000 43.0000 1.0000
47.3100 46.0000 1.0000
47.3200 42.0000 1.0000
47.3300 45.0000 1.0000
47.3400 48.0000 1.0000
47.3500 48.0000 1.0000
47.3600 31.0000 1.0000
47.3700 44.0000 1.0000
47.3800 39.0000 1.0000
47.3900 35.0000 1.0000
47.4000 29.0000 1.0000
47.4100 39.0000 1.0000
47.4200 36.0000 1.0000
47.4300 46.0000 1.0000
47.4400 42.0000 1.0000
47.4500 50.0000 1.0000
47.4600 40.0000 1.0000
47.4700 37.0000 1.0000
47.4800 32.0000 1.0000
47.4900 47.0000 1.0000
47.5000 38.0000 1.0000
47.5100 31.0000 1.0000
47.5200 48.0000 1.0000
47.5300 33.0000 1.0000
47.5400 33.0000 1.0000
47.5500 40.0000 1.0000
47.5600 29.0000 1.0000
47.5700 44.0000 1.0000
47.5800 37.0000 1.0000
47.5900 49.0000 1.0000
47.6000 36.0000 1.0000
47.6100 59.0000 1.0000
47.6200 31.0000 1.0000
47.6300 44.0000 1.0000
47.6400 38.0000 1.0000
47.6500 46.0000 1.0000
47.6600 35.0000 1.0000
47.6700 55.0000 1.0000
47.6800 50.0000 1.0000
47.6900 39.0000 1.0000
47.7000 34.0000 1.0000
47.7100 42.0000 1.0000
47.7200 35.0000 1.0000
47.7300 41.0000 1.0000
47.7400 41.0000 1.0000
47.7500 46.0000 1.0000
47.7600 26.0000 1.0000
47.7700 35.0000 1.0000
47.7800 31.0000 1.0000
47.7900 41.0000 1.0000
47.8000 31.0000 1.0000
47.8100 30.0000 1.0000
47.8200 41.0000 1.0000
47.8300 39.0000 1.0000
47.8400 28.0000 1.0000
47.8500 41.0000 1.0000
47.8600 33.0000 1.0000
47.8700 36.0000 1.0000
47.8800 35.0000 1.0000
47.8900 31.0000 1.0000
47.9000 39.0000 1.0000
47.9100 38.0000 1.0000
47.9200 33.0000 1.0000
47.9300 44.0000 1.0000
47.9400 35.0000 1.0000
47.9500 39.0000 1.0000
47.9600 30.0000 1.0000
47.9700 41.0000 1.0000
47.9800 41.0000 1.0000
47.9900 33.0000 1.0000
48.0000 38.0000 1.0000
48.0100 35.0000 1.0000
48.0200 44.0000 1.0000
48.0300 45.0000 1.0000
48.0400 47.0000 1.0000
48.0500 47.0000 1.0000
48.0600 47.0000 1.0000
48.0700 47.0000 1.0000
48.0800 35.0000 1.0000
48.0900 30.0000 1.0000
48.1000 30.0000 1.0000
48.1100 43.0000 1.0000
48.1200 32.0000 1.0000
48.1300 42.0000 1.0000
48.1400 42.0000 1.0000
48.1500 41.0000 1.0000
48.1600 34.0000 1.0000
48.1700 40.0000 1.0000
48.1800 56.0000 1.0000
48.1900 54.0000 1.0000
48.2000 32.0000 1.0000
48.2100 43.0000 1.0000
48.2200 39.0000 1.0000
48.2300 39.0000 1.0000
48.2400 46.0000 1.0000
48.2500 36.0000 1.0000
48.2600 51.0000 1.0000
48.2700 53.0000 1.0000
48.2800 39.0000 1.0000
48.2900 36.0000 1.0000
48.3000 30.0000 1.0000
48.3100 32.0000 1.0000
48.3200 43.0000 1.0000
48.3300 38.0000 1.0000
48.3400 40.0000 1.0000
48.3500 43.0000 1.0000
48.3600 47.0000 1.0000
48.3700 42.0000 1.0000
48.3800 30.0000 1.0000
48.3900 37.0000 1.0000
48.4000 33.0000 1.0000
48.4100 39.0000 1.0000
48.4200 47.0000 1.0000
48.4300 42.0000 1.0000
48.4400 37.0000 1.0000
48.4500 56.0000 1.0000
48.4600 36.0000 1.0000
48.4700 35.0000 1.0000
48.4800 39.0000 1.0000
48.4900 43.0000 1.0000
48.5000 34.0000 1.0000
48.5100 41.0000 1.0000
48.5200 36.0000 1.0000
48.5300 42.0000 1.0000
48.5400 46.0000 1.0000
48.5500 35.0000 1.0000
48.5600 36.0000 1.0000
48.5700 35.0000 1.0000
48.5800 30.0000 1.0000
48.5900 41.0000 1.0000
48.6000 37.0000 1.0000
48.6100 43.0000 1.0000
48.6200 29.0000 1.0000
48.6300 29.0000 1.0000
48.6400 49.0000 1.0000
48.6500 39.0000 1.0000
48.6600 33.0000 1.0000
48.6700 47.0000 1.0000
48.6800 38.0000 1.0000
48.6900 34.0000 1.0000
48.7000 51.0000 1.0000
48.7100 42.0000 1.0000
48.7200 40.0000 1.0000
48.7300 45.0000 1.0000
48.7400 43.0000 1.0000
48.7500 39.0000 1.0000
48.7600 40.0000 1.0000
48.7700 40.0000 1.0000
48.7800 31.0000 1.0000
48.7900 34.0000 1.0000
48.8000 39.0000 1.0000
48.8100 33.0000 1.0000
48.8200 48.0000 1.0000
48.8300 32.0000 1.0000
48.8400 42.0000 1.0000
48.8500 41.0000 1.0000
48.8600 36.0000 1.0000
48.8700 35.0000 1.0000
48.8800 40.0000 1.0000
48.8900 32.0000 1.0000
48.9000 52.0000 1.0000
48.9100 35.0000 1.0000
48.9200 37.0000 1.0000
48.9300 44.0000 1.0000
48.9400 30.0000 1.0000
48.9500 24.0000 1.0000
48.9600 34.0000 1.0000
48.9700 32.0000 1.0000
48.9800 45.0000 1.0000
48.9900 40.0000 1.0000
49.0000 44.0000 1.0000
49.0100 46.0000 1.0000
49.0200 41.0000 1.0000
49.0300 42.0000 1.0000
49.0400 35.0000 1.0000
49.0500 30.0000 1.0000
49.0600 45.0000 1.0000
49.0700 31.0000 1.0000
49.0800 35.0000 1.0000
49.0900 39.0000 1.0000
49.1000 35.0000 1.0000
49.1100 42.0000 1.0000
49.1200 37.0000 1.0000
49.1300 49.0000 1.0000
49.1400 39.0000 1.0000
49.1500 37.0000 1.0000
49.1600 54.0000 1.0000
49.1700 33.0000 1.0000
49.1800 26.0000 1.0000
49.1900 39.0000 1.0000
49.2000 42.0000 1.0000
49.2100 45.0000 1.0000
49.2200 34.0000 1.0000
49.2300 36.0000 1.0000
49.2400 39.0000 1.0000
49.2500 29.0000 1.0000
49.2600 37.0000 1.0000
49.2700 30.0000 1.0000
49.2800 37.0000 1.0000
49.2900 30.0000 1.0000
49.3000 31.0000 1.0000
49.3100 40.0000 1.0000
49.3200 34.0000 1.0000
49.3300 39.0000 1.0000
49.3400 26.0000 1.0000
49.3500 33.0000 1.0000
49.3600 33.0000 1.0000
49.3700 35.0000 1.0000
49.3800 38.0000 1.0000
49.3900 42.0000 1.0000
49.4000 31.0000 1.0000
49.4100 38.0000 1.0000
49.4200 34.0000 1.0000
49.4300 42.0000 1.0000
49.4400 38.0000 1.0000
49.4500 40.0000 1.0000
49.4600 37.0000 1.0000
49.4700 29.0000 1.0000
49.4800 39.0000 1.0000
49.4900 47.0000 1.0000
49.5000 28.0000 1.0000
49.5100 34.0000 1.0000
49.5200 28.0000 1.0000
49.5300 39.0000 1.0000
49.5400 40.0000 1.0000
49.5500 35.0000 1.0000
49.5600 48.0000 1.0000
49.5700 42.0000 1.0000
49.5800 23.0000 1.0000
49.5900 45.0000 1.0000
49.6000 39.0000 1.0000
49.6100 37.0000 1.0000
49.6200 32.0000 1.0000
49.6300 30.0000 1.0000
49.6400 42.0000 1.0000
49.6500 35.0000 1.0000
49.6600 43.0000 1.0000
49.6700 43.0000 1.0000
49.6800 37.0000 1.0000
49.6900 35.0000 1.0000
49.7000 31.0000 1.0000
49.7100 32.0000 1.0000
49.7200 51.0000 1.0000
49.7300 34.0000 1.0000
49.7400 37.0000 1.0000
49.7500 38.0000 1.0000
49.7600 46.0000 1.0000
49.7700 30.0000 1.0000
49.7800 45.0000 1.0000
49.7900 34.0000 1.0000
49.8000 37.0000 1.0000
49.8100 43.0000 1.0000
49.8200 48.0000 1.0000
49.8300 44.0000 1.0000
49.8400 28.0000 1.0000
49.8500 47.0000 1.0000
49.8600 32.0000 1.0000
49.8700 38.0000 1.0000
49.8800 24.0000 1.0000
49.8900 43.0000 1.0000
49.9000 30.0000 1.0000
49.9100 39.0000 1.0000
49.9200 40.0000 1.0000
49.9300 42.0000 1.0000
49.9400 37.0000 1.0000
49.9500 38.0000 1.0000
49.9600 31.0000 1.0000
49.9700 43.0000 1.0000
49.9800 31.0000 1.0000
49.9900 35.0000 1.0000
50.0000 26.0000 1.0000
50.0100 44.0000 1.0000
50.0200 32.0000 1.0000
50.0300 43.0000 1.0000
50.0400 41.0000 1.0000
50.0500 31.0000 1.0000
50.0600 32.0000 1.0000
50.0700 41.0000 1.0000
50.0800 33.0000 1.0000
50.0900 38.0000 1.0000
50.1000 46.0000 1.0000
50.1100 40.0000 1.0000
50.1200 40.0000 1.0000
50.1300 37.0000 1.0000
50.1400 50.0000 1.0000
50.1500 47.0000 1.0000
50.1600 34.0000 1.0000
50.1700 46.0000 1.0000
50.1800 45.0000 1.0000
50.1900 35.0000 1.0000
50.2000 47.0000 1.0000
50.2100 29.0000 1.0000
50.2200 46.0000 1.0000
50.2300 56.0000 1.0000
50.2400 46.0000 1.0000
50.2500 38.0000 1.0000
50.2600 49.0000 1.0000
50.2700 45.0000 1.0000
50.2800 42.0000 1.0000
50.2900 56.0000 1.0000
50.3000 49.0000 1.0000
50.3100 31.0000 1.0000
50.3200 55.0000 1.0000
50.3300 60.0000 1.0000
50.3400 42.0000 1.0000
50.3500 41.0000 1.0000
50.3600 41.0000 1.0000
50.3700 45.0000 1.0000
50.3800 47.0000 1.0000
50.3900 34.0000 1.0000
50.4000 43.0000 1.0000
50.4100 48.0000 1.0000
50.4200 52.0000 1.0000
50.4300 35.0000 1.0000
50.4400 52.0000 1.0000
50.4500 45.0000 1.0000
50.4600 48.0000 1.0000
50.4700 40.0000 1.0000
50.4800 30.0000 1.0000
50.4900 49.0000 1.0000
50.5000 38.0000 1.0000
50.5100 50.0000 1.0000
50.5200 30.0000 1.0000
50.5300 39.0000 1.0000
50.5400 42.0000 1.0000
50.5500 54.0000 1.0000
50.5600 42.0000 1.0000
50.5700 46.0000 1.0000
50.5800 45.0000 1.0000
50.5900 37.0000 1.0000
50.6000 36.0000 1.0000
50.6100 42.0000 1.0000
50.6200 34.0000 1.0000
50.6300 38.0000 1.0000
50.6400 32.0000 1.0000
50.6500 47.0000 1.0000
50.6600 36.0000 1.0000
50.6700 37.0000 1.0000
50.6800 33.0000 1.0000
50.6900 49.0000 1.0000
50.7000 33.0000 1.0000
50.7100 29.0000 1.0000
50.7200 38.0000 1.0000
50.7300 33.0000 1.0000
50.7400 39.0000 1.0000
50.7500 45.0000 1.0000
50.7600 28.0000 1.0000
50.7700 32.0000 1.0000
50.7800 49.0000 1.0000
50.7900 39.0000 1.0000
50.8000 51.0000 1.0000
50.8100 32.0000 1.0000
50.8200 44.0000 1.0000
50.8300 37.0000 1.0000
50.8400 35.0000 1.0000
50.8500 27.0000 1.0000
50.8600 33.0000 1.0000
50.8700 39.0000 1.0000
50.8800 35.0000 1.0000
50.8900 37.0000 1.0000
50.9000 33.0000 1.0000
50.9100 33.0000 1.0000
50.9200 37.0000 1.0000
50.9300 38.0000 1.0000
50.9400 46.0000 1.0000
50.9500 37.0000 1.0000
50.9600 40.0000 1.0000
50.9700 39.0000 1.0000
50.9800 33.0000 1.0000
50.9900 28.0000 1.0000
51.0000 34.0000 1.0000
51.0100 40.0000 1.0000
51.0200 36.0000 1.0000
51.0300 40.0000 1.0000
51.0400 34.0000 1.0000
51.0500 38.0000 1.0000
51.0600 33.0000 1.0000
51.0700 36.0000 1.0000
51.0800 35.0000 1.0000
51.0900 35.0000 1.0000
51.1000 37.0000 1.0000
51.1100 37.0000 1.0000
51.1200 38.0000 1.0000
51.1300 37.0000 1.0000
51.1400 38.0000 1.0000
51.1500 29.0000 1.0000
51.1600 40.0000 1.0000
51.1700 31.0000 1.0000
51.1800 35.0000 1.0000
51.1900 44.0000 1.0000
51.2000 47.0000 1.0000
51.2100 37.0000 1.0000
51.2200 43.0000 1.0000
51.2300 32.0000 1.0000
51.2400 44.0000 1.0000
51.2500 34.0000 1.0000
51.2600 35.0000 1.0000
51.2700 25.0000 1.0000
51.2800 32.0000 1.0000
51.2900 36.0000 1.0000
51.3000 38.0000 1.0000
51.3100 37.0000 1.0000
51.3200 37.0000 1.0000
51.3300 40.0000 1.0000
51.3400 42.0000 1.0000
51.3500 38.0000 1.0000
51.3600 48.0000 1.0000
51.3700 53.0000 1.0000
51.3800 32.0000 1.0000
51.3900 30.0000 1.0000
51.4000 29.0000 1.0000
51.4100 37.0000 1.0000
51.4200 41.0000 1.0000
51.4300 54.0000 1.0000
51.4400 36.0000 1.0000
51.4500 17.0000 1.0000
51.4600 45.0000 1.0000
51.4700 43.0000 1.0000
51.4800 34.0000 1.0000
51.4900 34.0000 1.0000
51.5000 37.0000 1.0000
51.5100 39.0000 1.0000
51.5200 33.0000 1.0000
51.5300 41.0000 1.0000
51.5400 37.0000 1.0000
51.5500 37.0000 1.0000
51.5600 42.0000 1.0000
51.5700 44.0000 1.0000
51.5800 48.0000 1.0000
51.5900 33.0000 1.0000
51.6000 26.0000 1.0000
51.6100 29.0000 1.0000
51.6200 38.0000 1.0000
51.6300 32.0000 1.0000
51.6400 37.0000 1.0000
51.6500 28.0000 1.0000
51.6600 30.0000 1.0000
51.6700 34.0000 1.0000
51.6800 29.0000 1.0000
51.6900 23.0000 1.0000
51.7000 38.0000 1.0000
51.7100 29.0000 1.0000
51.7200 38.0000 1.0000
51.7300 41.0000 1.0000
51.7400 43.0000 1.0000
51.7500 31.0000 1.0000
51.7600 30.0000 1.0000
51.7700 43.0000 1.0000
51.7800 30.0000 1.0000
51.7900 30.0000 1.0000
51.8000 33.0000 1.0000
51.8100 27.0000 1.0000
51.8200 44.0000 1.0000
51.8300 33.0000 1.0000
51.8400 29.0000 1.0000
51.8500 33.0000 1.0000
51.8600 32.0000 1.0000
51.8700 53.0000 1.0000
51.8800 34.0000 1.0000
51.8900 37.0000 1.0000
51.9000 41.0000 1.0000
51.9100 37.0000 1.0000
51.9200 38.0000 1.0000
51.9300 33.0000 1.0000
51.9400 31.0000 1.0000
51.9500 39.0000 1.0000
51.9600 31.0000 1.0000
51.9700 34.0000 1.0000
51.9800 43.0000 1.0000
51.9900 37.0000 1.0000
52.0000 41.0000 1.0000
52.0100 42.0000 1.0000
52.0200 28.0000 1.0000
52.0300 56.0000 1.0000
52.0400 40.0000 1.0000
52.0500 43.0000 1.0000
52.0600 29.0000 1.0000
52.0700 36.0000 1.0000
52.0800 36.0000 1.0000
52.0900 31.0000 1.0000
52.1000 37.0000 1.0000
52.1100 38.0000 1.0000
52.1200 46.0000 1.0000
52.1300 40.0000 1.0000
52.1400 40.0000 1.0000
52.1500 29.0000 1.0000
52.1600 35.0000 1.0000
52.1700 39.0000 1.0000
52.1800 30.0000 1.0000
52.1900 38.0000 1.0000
52.2000 46.0000 1.0000
52.2100 31.0000 1.0000
52.2200 47.0000 1.0000
52.2300 37.0000 1.0000
52.2400 22.0000 1.0000
52.2500 33.0000 1.0000
52.2600 31.0000 1.0000
52.2700 31.0000 1.0000
52.2800 34.0000 1.0000
52.2900 38.0000 1.0000
52.3000 36.0000 1.0000
52.3100 46.0000 1.0000
52.3200 35.0000 1.0000
52.3300 37.0000 1.0000
52.3400 20.0000 1.0000
52.3500 33.0000 1.0000
52.3600 33.0000 1.0000
52.3700 35.0000 1.0000
52.3800 37.0000 1.0000
52.3900 33.0000 1.0000
52.4000 35.0000 1.0000
52.4100 38.0000 1.0000
52.4200 48.0000 1.0000
52.4300 34.0000 1.0000
52.4400 26.0000 1.0000
52.4500 33.0000 1.0000
52.4600 45.0000 1.0000
52.4700 33.0000 1.0000
52.4800 44.0000 1.0000
52.4900 48.0000 1.0000
52.5000 37.0000 1.0000
52.5100 30.0000 1.0000
52.5200 42.0000 1.0000
52.5300 31.0000 1.0000
52.5400 25.0000 1.0000
52.5500 37.0000 1.0000
52.5600 42.0000 1.0000
52.5700 54.0000 1.0000
52.5800 39.0000 1.0000
52.5900 32.0000 1.0000
52.6000 42.0000 1.0000
52.6100 27.0000 1.0000
52.6200 30.0000 1.0000
52.6300 41.0000 1.0000
52.6400 46.0000 1.0000
52.6500 38.0000 1.0000
52.6600 38.0000 1.0000
52.6700 44.0000 1.0000
52.6800 29.0000 1.0000
52.6900 46.0000 1.0000
52.7000 28.0000 1.0000
52.7100 33.0000 1.0000
52.7200 32.0000 1.0000
52.7300 47.0000 1.0000
52.7400 43.0000 1.0000
52.7500 34.0000 1.0000
52.7600 39.0000 1.0000
52.7700 39.0000 1.0000
52.7800 43.0000 1.0000
52.7900 37.0000 1.0000
52.8000 25.0000 1.0000
52.8100 33.0000 1.0000
52.8200 40.0000 1.0000
52.8300 38.0000 1.0000
52.8400 31.0000 1.0000
52.8500 35.0000 1.0000
52.8600 43.0000 1.0000
52.8700 40.0000 1.0000
52.8800 35.0000 1.0000
52.8900 36.0000 1.0000
52.9000 39.0000 1.0000
52.9100 32.0000 1.0000
52.9200 36.0000 1.0000
52.9300 37.0000 1.0000
52.9400 41.0000 1.0000
52.9500 32.0000 1.0000
52.9600 34.0000 1.0000
52.9700 32.0000 1.0000
52.9800 25.0000 1.0000
52.9900 35.0000 1.0000
53.0000 42.0000 1.0000
53.0100 34.0000 1.0000
53.0200 31.0000 1.0000
53.0300 28.0000 1.0000
53.0400 44.0000 1.0000
53.0500 30.0000 1.0000
53.0600 28.0000 1.0000
53.0700 45.0000 1.0000
53.0800 25.0000 1.0000
53.0900 27.0000 1.0000
53.1000 33.0000 1.0000
53.1100 29.0000 1.0000
53.1200 35.0000 1.0000
53.1300 31.0000 1.0000
53.1400 26.0000 1.0000
53.1500 35.0000 1.0000
53.1600 35.0000 1.0000
53.1700 38.0000 1.0000
53.1800 40.0000 1.0000
53.1900 38.0000 1.0000
53.2000 34.0000 1.0000
53.2100 38.0000 1.0000
53.2200 34.0000 1.0000
53.2300 35.0000 1.0000
53.2400 29.0000 1.0000
53.2500 38.0000 1.0000
53.2600 33.0000 1.0000
53.2700 33.0000 1.0000
53.2800 39.0000 1.0000
53.2900 28.0000 1.0000
53.3000 35.0000 1.0000
53.3100 27.0000 1.0000
53.3200 37.0000 1.0000
53.3300 48.0000 1.0000
53.3400 33.0000 1.0000
53.3500 27.0000 1.0000
53.3600 30.0000 1.0000
53.3700 39.0000 1.0000
53.3800 35.0000 1.0000
53.3900 44.0000 1.0000
53.4000 33.0000 1.0000
53.4100 29.0000 1.0000
53.4200 37.0000 1.0000
53.4300 43.0000 1.0000
53.4400 50.0000 1.0000
53.4500 39.0000 1.0000
53.4600 38.0000 1.0000
53.4700 40.0000 1.0000
53.4800 33.0000 1.0000
53.4900 42.0000 1.0000
53.5000 44.0000 1.0000
53.5100 43.0000 1.0000
53.5200 50.0000 1.0000
53.5300 43.0000 1.0000
53.5400 44.0000 1.0000
53.5500 48.0000 1.0000
53.5600 63.0000 1.0000
53.5700 59.0000 1.0000
53.5800 44.0000 1.0000
53.5900 50.0000 1.0000
53.6000 76.0000 1.0000
53.6100 50.0000 1.0000
53.6200 62.0000 1.0000
53.6300 47.0000 1.0000
53.6400 59.0000 1.0000
53.6500 51.0000 1.0000
53.6600 64.0000 1.0000
53.6700 58.0000 1.0000
53.6800 71.0000 1.0000
53.6900 62.0000 1.0000
53.7000 62.0000 1.0000
53.7100 63.0000 1.0000
53.7200 76.0000 1.0000
53.7300 70.0000 1.0000
53.7400 78.0000 1.0000
53.7500 76.0000 1.0000
53.7600 84.0000 1.0000
53.7700 81.0000 1.0000
53.7800 81.0000 1.0000
53.7900 92.0000 1.0000
53.8000 80.0000 1.0000
53.8100 77.0000 1.0000
53.8200 81.0000 1.0000
53.8300 98.0000 1.0000
53.8400 98.0000 1.0000
53.8500 88.0000 1.0000
53.8600 79.0000 1.0000
53.8700 80.0000 1.0000
53.8800 92.0000 1.0000
53.8900 75.0000 1.0000
53.9000 84.0000 1.0000
53.9100 82.0000 1.0000
53.9200 70.0000 1.0000
53.9300 83.0000 1.0000
53.9400 70.0000 1.0000
53.9500 75.0000 1.0000
53.9600 78.0000 1.0000
53.9700 53.0000 1.0000
53.9800 68.0000 1.0000
53.9900 65.0000 1.0000
54.0000 63.0000 1.0000
54.0100 63.0000 1.0000
54.0200 77.0000 1.0000
54.0300 63.0000 1.0000
54.0400 75.0000 1.0000
54.0500 68.0000 1.0000
54.0600 61.0000 1.0000
54.0700 50.0000 1.0000
54.0800 53.0000 1.0000
54.0900 62.0000 1.0000
54.1000 52.0000 1.0000
54.1100 59.0000 1.0000
54.1200 53.0000 1.0000
54.1300 43.0000 1.0000
54.1400 56.0000 1.0000
54.1500 55.0000 1.0000
54.1600 46.0000 1.0000
54.1700 39.0000 1.0000
54.1800 50.0000 1.0000
54.1900 35.0000 1.0000
54.2000 46.0000 1.0000
54.2100 36.0000 1.0000
54.2200 37.0000 1.0000
54.2300 48.0000 1.0000
54.2400 43.0000 1.0000
54.2500 36.0000 1.0000
54.2600 45.0000 1.0000
54.2700 43.0000 1.0000
54.2800 35.0000 1.0000
54.2900 29.0000 1.0000
54.3000 46.0000 1.0000
54.3100 40.0000 1.0000
54.3200 35.0000 1.0000
54.3300 37.0000 1.0000
54.3400 45.0000 1.0000
54.3500 30.0000 1.0000
54.3600 42.0000 1.0000
54.3700 37.0000 1.0000
54.3800 30.0000 1.0000
54.3900 29.0000 1.0000
54.4000 47.0000 1.0000
54.4100 30.0000 1.0000
54.4200 31.0000 1.0000
54.4300 31.0000 1.0000
54.4400 42.0000 1.0000
54.4500 30.0000 1.0000
54.4600 36.0000 1.0000
54.4700 36.0000 1.0000
54.4800 34.0000 1.0000
54.4900 22.0000 1.0000
54.5000 25.0000 1.0000
54.5100 39.0000 1.0000
54.5200 29.0000 1.0000
54.5300 28.0000 1.0000
54.5400 33.0000 1.0000
54.5500 41.0000 1.0000
54.5600 30.0000 1.0000
54.5700 26.0000 1.0000
54.5800 34.0000 1.0000
54.5900 33.0000 1.0000
54.6000 39.0000 1.0000
54.6100 31.0000 1.0000
54.6200 37.0000 1.0000
54.6300 42.0000 1.0000
54.6400 34.0000 1.0000
54.6500 28.0000 1.0000
54.6600 39.0000 1.0000
54.6700 24.0000 1.0000
54.6800 38.0000 1.0000
54.6900 34.0000 1.0000
54.7000 35.0000 1.0000
54.7100 30.0000 1.0000
54.7200 37.0000 1.0000
54.7300 32.0000 1.0000
54.7400 41.0000 1.0000
54.7500 31.0000 1.0000
54.7600 42.0000 1.0000
54.7700 30.0000 1.0000
54.7800 42.0000 1.0000
54.7900 35.0000 1.0000
54.8000 30.0000 1.0000
54.8100 42.0000 1.0000
54.8200 32.0000 1.0000
54.8300 33.0000 1.0000
54.8400 42.0000 1.0000
54.8500 34.0000 1.0000
54.8600 26.0000 1.0000
54.8700 40.0000 1.0000
54.8800 22.0000 1.0000
54.8900 42.0000 1.0000
54.9000 30.0000 1.0000
54.9100 27.0000 1.0000
54.9200 25.0000 1.0000
54.9300 33.0000 1.0000
54.9400 34.0000 1.0000
54.9500 38.0000 1.0000
54.9600 35.0000 1.0000
54.9700 31.0000 1.0000
54.9800 35.0000 1.0000
54.9900 35.0000 1.0000
55.0000 33.0000 1.0000
55.0100 34.0000 1.0000
55.0200 38.0000 1.0000
55.0300 37.0000 1.0000
55.0400 30.0000 1.0000
55.0500 37.0000 1.0000
55.0600 29.0000 1.0000
55.0700 35.0000 1.0000
55.0800 29.0000 1.0000
55.0900 35.0000 1.0000
55.1000 32.0000 1.0000
55.1100 34.0000 1.0000
55.1200 42.0000 1.0000
55.1300 39.0000 1.0000
55.1400 32.0000 1.0000
55.1500 35.0000 1.0000
55.1600 32.0000 1.0000
55.1700 32.0000 1.0000
55.1800 45.0000 1.0000
55.1900 29.0000 1.0000
55.2000 37.0000 1.0000
55.2100 40.0000 1.0000
55.2200 34.0000 1.0000
55.2300 32.0000 1.0000
55.2400 42.0000 1.0000
55.2500 41.0000 1.0000
55.2600 32.0000 1.0000
55.2700 39.0000 1.0000
55.2800 30.0000 1.0000
55.2900 29.0000 1.0000
55.3000 43.0000 1.0000
55.3100 21.0000 1.0000
55.3200 20.0000 1.0000
55.3300 35.0000 1.0000
55.3400 33.0000 1.0000
55.3500 27.0000 1.0000
55.3600 27.0000 1.0000
55.3700 25.0000 1.0000
55.3800 43.0000 1.0000
55.3900 27.0000 1.0000
55.4000 39.0000 1.0000
55.4100 34.0000 1.0000
55.4200 35.0000 1.0000
55.4300 22.0000 1.0000
55.4400 27.0000 1.0000
55.4500 29.0000 1.0000
55.4600 26.0000 1.0000
55.4700 30.0000 1.0000
55.4800 31.0000 1.0000
55.4900 23.0000 1.0000
55.5000 33.0000 1.0000
55.5100 40.0000 1.0000
55.5200 35.0000 1.0000
55.5300 32.0000 1.0000
55.5400 40.0000 1.0000
55.5500 46.0000 1.0000
55.5600 35.0000 1.0000
55.5700 25.0000 1.0000
55.5800 34.0000 1.0000
55.5900 40.0000 1.0000
55.6000 38.0000 1.0000
55.6100 30.0000 1.0000
55.6200 34.0000 1.0000
55.6300 37.0000 1.0000
55.6400 32.0000 1.0000
55.6500 33.0000 1.0000
55.6600 49.0000 1.0000
55.6700 33.0000 1.0000
55.6800 30.0000 1.0000
55.6900 36.0000 1.0000
55.7000 33.0000 1.0000
55.7100 39.0000 1.0000
55.7200 25.0000 1.0000
55.7300 33.0000 1.0000
55.7400 33.0000 1.0000
55.7500 28.0000 1.0000
55.7600 40.0000 1.0000
55.7700 31.0000 1.0000
55.7800 30.0000 1.0000
55.7900 29.0000 1.0000
55.8000 35.0000 1.0000
55.8100 31.0000 1.0000
55.8200 39.0000 1.0000
55.8300 31.0000 1.0000
55.8400 26.0000 1.0000
55.8500 41.0000 1.0000
55.8600 32.0000 1.0000
55.8700 28.0000 1.0000
55.8800 35.0000 1.0000
55.8900 36.0000 1.0000
55.9000 32.0000 1.0000
55.9100 34.0000 1.0000
55.9200 42.0000 1.0000
55.9300 42.0000 1.0000
55.9400 28.0000 1.0000
55.9500 36.0000 1.0000
55.9600 30.0000 1.0000
55.9700 32.0000 1.0000
55.9800 26.0000 1.0000
55.9900 28.0000 1.0000
56.0000 23.0000 1.0000
56.0100 23.0000 1.0000
56.0200 21.0000 1.0000
56.0300 26.0000 1.0000
56.0400 24.0000 1.0000
56.0500 24.0000 1.0000
56.0600 25.0000 1.0000
56.0700 28.0000 1.0000
56.0800 27.0000 1.0000
56.0900 47.0000 1.0000
56.1000 28.0000 1.0000
56.1100 41.0000 1.0000
56.1200 38.0000 1.0000
56.1300 33.0000 1.0000
56.1400 33.0000 1.0000
56.1500 26.0000 1.0000
56.1600 32.0000 1.0000
56.1700 28.0000 1.0000
56.1800 26.0000 1.0000
56.1900 38.0000 1.0000
56.2000 24.0000 1.0000
56.2100 40.0000 1.0000
56.2200 24.0000 1.0000
56.2300 38.0000 1.0000
56.2400 30.0000 1.0000
56.2500 20.0000 1.0000
56.2600 30.0000 1.0000
56.2700 29.0000 1.0000
56.2800 28.0000 1.0000
56.2900 36.0000 1.0000
56.3000 41.0000 1.0000
56.3100 33.0000 1.0000
56.3200 33.0000 1.0000
56.3300 23.0000 1.0000
56.3400 39.0000 1.0000
56.3500 44.0000 1.0000
56.3600 32.0000 1.0000
56.3700 33.0000 1.0000
56.3800 39.0000 1.0000
56.3900 28.0000 1.0000
56.4000 32.0000 1.0000
56.4100 26.0000 1.0000
56.4200 33.0000 1.0000
56.4300 22.0000 1.0000
56.4400 31.0000 1.0000
56.4500 40.0000 1.0000
56.4600 32.0000 1.0000
56.4700 26.0000 1.0000
56.4800 28.0000 1.0000
56.4900 34.0000 1.0000
56.5000 30.0000 1.0000
56.5100 29.0000 1.0000
56.5200 38.0000 1.0000
56.5300 26.0000 1.0000
56.5400 35.0000 1.0000
56.5500 33.0000 1.0000
56.5600 27.0000 1.0000
56.5700 32.0000 1.0000
56.5800 29.0000 1.0000
56.5900 28.0000 1.0000
56.6000 35.0000 1.0000
56.6100 29.0000 1.0000
56.6200 31.0000 1.0000
56.6300 31.0000 1.0000
56.6400 37.0000 1.0000
56.6500 33.0000 1.0000
56.6600 28.0000 1.0000
56.6700 23.0000 1.0000
56.6800 35.0000 1.0000
56.6900 30.0000 1.0000
56.7000 23.0000 1.0000
56.7100 31.0000 1.0000
56.7200 13.0000 1.0000
56.7300 23.0000 1.0000
56.7400 37.0000 1.0000
56.7500 32.0000 1.0000
56.7600 29.0000 1.0000
56.7700 25.0000 1.0000
56.7800 23.0000 1.0000
56.7900 38.0000 1.0000
56.8000 42.0000 1.0000
56.8100 36.0000 1.0000
56.8200 27.0000 1.0000
56.8300 30.0000 1.0000
56.8400 29.0000 1.0000
56.8500 25.0000 1.0000
56.8600 31.0000 1.0000
56.8700 29.0000 1.0000
56.8800 32.0000 1.0000
56.8900 34.0000 1.0000
56.9000 31.0000 1.0000
56.9100 34.0000 1.0000
56.9200 19.0000 1.0000
56.9300 30.0000 1.0000
56.9400 26.0000 1.0000
56.9500 25.0000 1.0000
56.9600 42.0000 1.0000
56.9700 24.0000 1.0000
56.9800 24.0000 1.0000
56.9900 26.0000 1.0000
57.0000 33.0000 1.0000
57.0100 24.0000 1.0000
57.0200 24.0000 1.0000
57.0300 28.0000 1.0000
57.0400 25.0000 1.0000
57.0500 36.0000 1.0000
57.0600 41.0000 1.0000
57.0700 34.0000 1.0000
57.0800 39.0000 1.0000
57.0900 28.0000 1.0000
57.1000 28.0000 1.0000
57.1100 43.0000 1.0000
57.1200 23.0000 1.0000
57.1300 24.0000 1.0000
57.1400 31.0000 1.0000
57.1500 25.0000 1.0000
57.1600 30.0000 1.0000
57.1700 30.0000 1.0000
57.1800 33.0000 1.0000
57.1900 40.0000 1.0000
57.2000 34.0000 1.0000
57.2100 29.0000 1.0000
57.2200 27.0000 1.0000
57.2300 36.0000 1.0000
57.2400 28.0000 1.0000
57.2500 32.0000 1.0000
57.2600 34.0000 1.0000
57.2700 34.0000 1.0000
57.2800 42.0000 1.0000
57.2900 24.0000 1.0000
57.3000 28.0000 1.0000
57.3100 30.0000 1.0000
57.3200 33.0000 1.0000
57.3300 34.0000 1.0000
57.3400 39.0000 1.0000
57.3500 30.0000 1.0000
57.3600 41.0000 1.0000
57.3700 34.0000 1.0000
57.3800 40.0000 1.0000
57.3900 29.0000 1.0000
57.4000 38.0000 1.0000
57.4100 37.0000 1.0000
57.4200 33.0000 1.0000
57.4300 39.0000 1.0000
57.4400 33.0000 1.0000
57.4500 46.0000 1.0000
57.4600 25.0000 1.0000
57.4700 33.0000 1.0000
57.4800 37.0000 1.0000
57.4900 32.0000 1.0000
57.5000 32.0000 1.0000
57.5100 39.0000 1.0000
57.5200 42.0000 1.0000
57.5300 33.0000 1.0000
57.5400 32.0000 1.0000
57.5500 26.0000 1.0000
57.5600 32.0000 1.0000
57.5700 39.0000 1.0000
57.5800 34.0000 1.0000
57.5900 27.0000 1.0000
57.6000 28.0000 1.0000
57.6100 28.0000 1.0000
57.6200 25.0000 1.0000
57.6300 28.0000 1.0000
57.6400 26.0000 1.0000
57.6500 33.0000 1.0000
57.6600 23.0000 1.0000
57.6700 25.0000 1.0000
57.6800 36.0000 1.0000
57.6900 30.0000 1.0000
57.7000 36.0000 1.0000
57.7100 18.0000 1.0000
57.7200 28.0000 1.0000
57.7300 38.0000 1.0000
57.7400 34.0000 1.0000
57.7500 33.0000 1.0000
57.7600 29.0000 1.0000
57.7700 35.0000 1.0000
57.7800 24.0000 1.0000
57.7900 21.0000 1.0000
57.8000 39.0000 1.0000
57.8100 24.0000 1.0000
57.8200 36.0000 1.0000
57.8300 33.0000 1.0000
57.8400 26.0000 1.0000
57.8500 35.0000 1.0000
57.8600 34.0000 1.0000
57.8700 42.0000 1.0000
57.8800 36.0000 1.0000
57.8900 21.0000 1.0000
57.9000 23.0000 1.0000
57.9100 34.0000 1.0000
57.9200 35.0000 1.0000
57.9300 33.0000 1.0000
57.9400 30.0000 1.0000
57.9500 19.0000 1.0000
57.9600 41.0000 1.0000
57.9700 31.0000 1.0000
57.9800 38.0000 1.0000
57.9900 24.0000 1.0000
58.0000 28.0000 1.0000
58.0100 31.0000 1.0000
58.0200 39.0000 1.0000
58.0300 34.0000 1.0000
58.0400 43.0000 1.0000
58.0500 26.0000 1.0000
58.0600 24.0000 1.0000
58.0700 20.0000 1.0000
58.0800 29.0000 1.0000
58.0900 23.0000 1.0000
58.1000 27.0000 1.0000
58.1100 38.0000 1.0000
58.1200 30.0000 1.0000
58.1300 27.0000 1.0000
58.1400 27.0000 1.0000
58.1500 29.0000 1.0000
58.1600 37.0000 1.0000
58.1700 22.0000 1.0000
58.1800 33.0000 1.0000
58.1900 36.0000 1.0000
58.2000 27.0000 1.0000
58.2100 29.0000 1.0000
58.2200 32.0000 1.0000
58.2300 28.0000 1.0000
58.2400 37.0000 1.0000
58.2500 25.0000 1.0000
58.2600 27.0000 1.0000
58.2700 28.0000 1.0000
58.2800 32.0000 1.0000
58.2900 28.0000 1.0000
58.3000 30.0000 1.0000
58.3100 35.0000 1.0000
58.3200 26.0000 1.0000
58.3300 24.0000 1.0000
58.3400 38.0000 1.0000
58.3500 28.0000 1.0000
58.3600 28.0000 1.0000
58.3700 32.0000 1.0000
58.3800 18.0000 1.0000
58.3900 32.0000 1.0000
58.4000 33.0000 1.0000
58.4100 33.0000 1.0000
58.4200 36.0000 1.0000
58.4300 28.0000 1.0000
58.4400 27.0000 1.0000
58.4500 29.0000 1.0000
58.4600 33.0000 1.0000
58.4700 29.0000 1.0000
58.4800 22.0000 1.0000
58.4900 27.0000 1.0000
58.5000 30.0000 1.0000
58.5100 27.0000 1.0000
58.5200 32.0000 1.0000
58.5300 31.0000 1.0000
58.5400 30.0000 1.0000
58.5500 19.0000 1.0000
58.5600 22.0000 1.0000
58.5700 27.0000 1.0000
58.5800 33.0000 1.0000
58.5900 28.0000 1.0000
58.6000 40.0000 1.0000
58.6100 39.0000 1.0000
58.6200 27.0000 1.0000
58.6300 31.0000 1.0000
58.6400 26.0000 1.0000
58.6500 25.0000 1.0000
58.6600 35.0000 1.0000
58.6700 33.0000 1.0000
58.6800 22.0000 1.0000
58.6900 24.0000 1.0000
58.7000 25.0000 1.0000
58.7100 30.0000 1.0000
58.7200 41.0000 1.0000
58.7300 25.0000 1.0000
58.7400 36.0000 1.0000
58.7500 26.0000 1.0000
58.7600 28.0000 1.0000
58.7700 32.0000 1.0000
58.7800 30.0000 1.0000
58.7900 21.0000 1.0000
58.8000 35.0000 1.0000
58.8100 29.0000 1.0000
58.8200 40.0000 1.0000
58.8300 29.0000 1.0000
58.8400 25.0000 1.0000
58.8500 34.0000 1.0000
58.8600 33.0000 1.0000
58.8700 30.0000 1.0000
58.8800 24.0000 1.0000
58.8900 22.0000 1.0000
58.9000 36.0000 1.0000
58.9100 35.0000 1.0000
58.9200 27.0000 1.0000
58.9300 36.0000 1.0000
58.9400 31.0000 1.0000
58.9500 21.0000 1.0000
58.9600 21.0000 1.0000
58.9700 24.0000 1.0000
58.9800 31.0000 1.0000
58.9900 27.0000 1.0000
59.0000 30.0000 1.0000
59.0100 21.0000 1.0000
59.0200 25.0000 1.0000
59.0300 26.0000 1.0000
59.0400 31.0000 1.0000
59.0500 36.0000 1.0000
59.0600 33.0000 1.0000
59.0700 26.0000 1.0000
59.0800 21.0000 1.0000
59.0900 33.0000 1.0000
59.1000 27.0000 1.0000
59.1100 30.0000 1.0000
59.1200 32.0000 1.0000
59.1300 28.0000 1.0000
59.1400 28.0000 1.0000
59.1500 38.0000 1.0000
59.1600 37.0000 1.0000
59.1700 25.0000 1.0000
59.1800 41.0000 1.0000
59.1900 36.0000 1.0000
59.2000 29.0000 1.0000
59.2100 33.0000 1.0000
59.2200 33.0000 1.0000
59.2300 18.0000 1.0000
59.2400 23.0000 1.0000
59.2500 28.0000 1.0000
59.2600 17.0000 1.0000
59.2700 25.0000 1.0000
59.2800 17.0000 1.0000
59.2900 26.0000 1.0000
59.3000 28.0000 1.0000
59.3100 34.0000 1.0000
59.3200 23.0000 1.0000
59.3300 17.0000 1.0000
59.3400 32.0000 1.0000
59.3500 28.0000 1.0000
59.3600 31.0000 1.0000
59.3700 27.0000 1.0000
59.3800 29.0000 1.0000
59.3900 33.0000 1.0000
59.4000 31.0000 1.0000
59.4100 32.0000 1.0000
59.4200 31.0000 1.0000
59.4300 30.0000 1.0000
59.4400 31.0000 1.0000
59.4500 29.0000 1.0000
59.4600 30.0000 1.0000
59.4700 21.0000 1.0000
59.4800 36.0000 1.0000
59.4900 35.0000 1.0000
59.5000 37.0000 1.0000
59.5100 27.0000 1.0000
59.5200 26.0000 1.0000
59.5300 28.0000 1.0000
59.5400 33.0000 1.0000
59.5500 28.0000 1.0000
59.5600 25.0000 1.0000
59.5700 30.0000 1.0000
59.5800 26.0000 1.0000
59.5900 31.0000 1.0000
59.6000 34.0000 1.0000
59.6100 29.0000 1.0000
59.6200 26.0000 1.0000
59.6300 30.0000 1.0000
59.6400 32.0000 1.0000
59.6500 37.0000 1.0000
59.6600 28.0000 1.0000
59.6700 31.0000 1.0000
59.6800 26.0000 1.0000
59.6900 32.0000 1.0000
59.7000 20.0000 1.0000
59.7100 22.0000 1.0000
59.7200 29.0000 1.0000
59.7300 42.0000 1.0000
59.7400 21.0000 1.0000
59.7500 27.0000 1.0000
59.7600 25.0000 1.0000
59.7700 27.0000 1.0000
59.7800 27.0000 1.0000
59.7900 32.0000 1.0000
59.8000 24.0000 1.0000
59.8100 28.0000 1.0000
59.8200 25.0000 1.0000
59.8300 29.0000 1.0000
59.8400 30.0000 1.0000
59.8500 38.0000 1.0000
59.8600 28.0000 1.0000
59.8700 20.0000 1.0000
59.8800 27.0000 1.0000
59.8900 32.0000 1.0000
59.9000 34.0000 1.0000
59.9100 36.0000 1.0000
59.9200 39.0000 1.0000
59.9300 30.0000 1.0000
59.9400 29.0000 1.0000
59.9500 24.0000 1.0000
59.9600 30.0000 1.0000
59.9700 31.0000 1.0000
59.9800 25.0000 1.0000
59.9900 24.0000 1.0000
60.0000 32.0000 1.0000
60.0100 24.0000 1.0000
60.0200 37.0000 1.0000
60.0300 37.0000 1.0000
60.0400 36.0000 1.0000
60.0500 24.0000 1.0000
60.0600 33.0000 1.0000
60.0700 31.0000 1.0000
60.0800 33.0000 1.0000
60.0900 29.0000 1.0000
60.1000 32.0000 1.0000
60.1100 39.0000 1.0000
60.1200 35.0000 1.0000
60.1300 28.0000 1.0000
60.1400 34.0000 1.0000
60.1500 35.0000 1.0000
60.1600 29.0000 1.0000
60.1700 28.0000 1.0000
60.1800 26.0000 1.0000
60.1900 32.0000 1.0000
60.2000 40.0000 1.0000
60.2100 27.0000 1.0000
60.2200 40.0000 1.0000
60.2300 30.0000 1.0000
60.2400 36.0000 1.0000
60.2500 35.0000 1.0000
60.2600 28.0000 1.0000
60.2700 35.0000 1.0000
60.2800 42.0000 1.0000
60.2900 33.0000 1.0000
60.3000 39.0000 1.0000
60.3100 31.0000 1.0000
60.3200 38.0000 1.0000
60.3300 41.0000 1.0000
60.3400 37.0000 1.0000
60.3500 41.0000 1.0000
60.3600 35.0000 1.0000
60.3700 21.0000 1.0000
60.3800 27.0000 1.0000
60.3900 33.0000 1.0000
60.4000 35.0000 1.0000
60.4100 40.0000 1.0000
60.4200 36.0000 1.0000
60.4300 39.0000 1.0000
60.4400 30.0000 1.0000
60.4500 31.0000 1.0000
60.4600 26.0000 1.0000
60.4700 30.0000 1.0000
60.4800 35.0000 1.0000
60.4900 37.0000 1.0000
60.5000 37.0000 1.0000
60.5100 38.0000 1.0000
60.5200 32.0000 1.0000
60.5300 32.0000 1.0000
60.5400 37.0000 1.0000
60.5500 39.0000 1.0000
60.5600 40.0000 1.0000
60.5700 46.0000 1.0000
60.5800 47.0000 1.0000
60.5900 34.0000 1.0000
60.6000 37.0000 1.0000
60.6100 39.0000 1.0000
60.6200 38.0000 1.0000
60.6300 44.0000 1.0000
60.6400 38.0000 1.0000
60.6500 43.0000 1.0000
60.6600 45.0000 1.0000
60.6700 42.0000 1.0000
60.6800 38.0000 1.0000
60.6900 40.0000 1.0000
60.7000 44.0000 1.0000
60.7100 51.0000 1.0000
60.7200 57.0000 1.0000
60.7300 62.0000 1.0000
60.7400 60.0000 1.0000
60.7500 52.0000 1.0000
60.7600 40.0000 1.0000
60.7700 52.0000 1.0000
60.7800 57.0000 1.0000
60.7900 53.0000 1.0000
60.8000 69.0000 1.0000
60.8100 54.0000 1.0000
60.8200 67.0000 1.0000
60.8300 69.0000 1.0000
60.8400 67.0000 1.0000
60.8500 70.0000 1.0000
60.8600 57.0000 1.0000
60.8700 84.0000 1.0000
60.8800 76.0000 1.0000
60.8900 67.0000 1.0000
60.9000 69.0000 1.0000
60.9100 71.0000 1.0000
60.9200 77.0000 1.0000
60.9300 58.0000 1.0000
60.9400 77.0000 1.0000
60.9500 73.0000 1.0000
60.9600 62.0000 1.0000
60.9700 78.0000 1.0000
60.9800 62.0000 1.0000
60.9900 67.0000 1.0000
61.0000 65.0000 1.0000
61.0100 56.0000 1.0000
61.0200 67.0000 1.0000
61.0300 77.0000 1.0000
61.0400 57.0000 1.0000
61.0500 51.0000 1.0000
61.0600 65.0000 1.0000
61.0700 66.0000 1.0000
61.0800 51.0000 1.0000
61.0900 57.0000 1.0000
61.1000 47.0000 1.0000
61.1100 54.0000 1.0000
61.1200 64.0000 1.0000
61.1300 47.0000 1.0000
61.1400 43.0000 1.0000
61.1500 44.0000 1.0000
61.1600 36.0000 1.0000
61.1700 42.0000 1.0000
61.1800 44.0000 1.0000
61.1900 48.0000 1.0000
61.2000 40.0000 1.0000
61.2100 44.0000 1.0000
61.2200 37.0000 1.0000
61.2300 40.0000 1.0000
61.2400 43.0000 1.0000
61.2500 36.0000 1.0000
61.2600 35.0000 1.0000
61.2700 32.0000 1.0000
61.2800 34.0000 1.0000
61.2900 33.0000 1.0000
61.3000 28.0000 1.0000
61.3100 36.0000 1.0000
61.3200 29.0000 1.0000
61.3300 29.0000 1.0000
61.3400 37.0000 1.0000
61.3500 37.0000 1.0000
61.3600 31.0000 1.0000
61.3700 28.0000 1.0000
61.3800 24.0000 1.0000
61.3900 23.0000 1.0000
61.4000 27.0000 1.0000
61.4100 33.0000 1.0000
61.4200 37.0000 1.0000
61.4300 30.0000 1.0000
61.4400 29.0000 1.0000
61.4500 26.0000 1.0000
61.4600 35.0000 1.0000
61.4700 40.0000 1.0000
61.4800 30.0000 1.0000
61.4900 28.0000 1.0000
61.5000 28.0000 1.0000
61.5100 28.0000 1.0000
61.5200 32.0000 1.0000
61.5300 28.0000 1.0000
61.5400 30.0000 1.0000
61.5500 31.0000 1.0000
61.5600 18.0000 1.0000
61.5700 25.0000 1.0000
61.5800 23.0000 1.0000
61.5900 37.0000 1.0000
61.6000 24.0000 1.0000
61.6100 27.0000 1.0000
61.6200 21.0000 1.0000
61.6300 37.0000 1.0000
61.6400 28.0000 1.0000
61.6500 27.0000 1.0000
61.6600 31.0000 1.0000
61.6700 31.0000 1.0000
61.6800 31.0000 1.0000
61.6900 34.0000 1.0000
61.7000 32.0000 1.0000
61.7100 26.0000 1.0000
61.7200 36.0000 1.0000
61.7300 37.0000 1.0000
61.7400 30.0000 1.0000
61.7500 32.0000 1.0000
61.7600 40.0000 1.0000
61.7700 24.0000 1.0000
61.7800 36.0000 1.0000
61.7900 37.0000 1.0000
61.8000 32.0000 1.0000
61.8100 24.0000 1.0000
61.8200 28.0000 1.0000
61.8300 29.0000 1.0000
61.8400 26.0000 1.0000
61.8500 27.0000 1.0000
61.8600 40.0000 1.0000
61.8700 39.0000 1.0000
61.8800 24.0000 1.0000
61.8900 25.0000 1.0000
61.9000 22.0000 1.0000
61.9100 33.0000 1.0000
61.9200 35.0000 1.0000
61.9300 33.0000 1.0000
61.9400 30.0000 1.0000
61.9500 31.0000 1.0000
61.9600 33.0000 1.0000
61.9700 22.0000 1.0000
61.9800 22.0000 1.0000
61.9900 26.0000 1.0000
62.0000 31.0000 1.0000
62.0100 30.0000 1.0000
62.0200 30.0000 1.0000
62.0300 22.0000 1.0000
62.0400 31.0000 1.0000
62.0500 20.0000 1.0000
62.0600 30.0000 1.0000
62.0700 25.0000 1.0000
62.0800 35.0000 1.0000
62.0900 33.0000 1.0000
62.1000 36.0000 1.0000
62.1100 25.0000 1.0000
62.1200 25.0000 1.0000
62.1300 25.0000 1.0000
62.1400 28.0000 1.0000
62.1500 25.0000 1.0000
62.1600 22.0000 1.0000
62.1700 32.0000 1.0000
62.1800 27.0000 1.0000
62.1900 30.0000 1.0000
62.2000 25.0000 1.0000
62.2100 28.0000 1.0000
62.2200 21.0000 1.0000
62.2300 21.0000 1.0000
62.2400 26.0000 1.0000
62.2500 20.0000 1.0000
62.2600 29.0000 1.0000
62.2700 37.0000 1.0000
62.2800 22.0000 1.0000
62.2900 25.0000 1.0000
62.3000 30.0000 1.0000
62.3100 32.0000 1.0000
62.3200 22.0000 1.0000
62.3300 25.0000 1.0000
62.3400 26.0000 1.0000
62.3500 28.0000 1.0000
62.3600 20.0000 1.0000
62.3700 37.0000 1.0000
62.3800 27.0000 1.0000
62.3900 35.0000 1.0000
62.4000 25.0000 1.0000
62.4100 28.0000 1.0000
62.4200 30.0000 1.0000
62.4300 24.0000 1.0000
62.4400 30.0000 1.0000
62.4500 33.0000 1.0000
62.4600 12.0000 1.0000
62.4700 36.0000 1.0000
62.4800 35.0000 1.0000
62.4900 23.0000 1.0000
62.5000 24.0000 1.0000
62.5100 25.0000 1.0000
62.5200 26.0000 1.0000
62.5300 32.0000 1.0000
62.5400 27.0000 1.0000
62.5500 38.0000 1.0000
62.5600 22.0000 1.0000
62.5700 19.0000 1.0000
62.5800 21.0000 1.0000
62.5900 23.0000 1.0000
62.6000 31.0000 1.0000
62.6100 33.0000 1.0000
62.6200 46.0000 1.0000
62.6300 26.0000 1.0000
62.6400 20.0000 1.0000
62.6500 33.0000 1.0000
62.6600 27.0000 1.0000
62.6700 30.0000 1.0000
62.6800 36.0000 1.0000
62.6900 28.0000 1.0000
62.7000 30.0000 1.0000
62.7100 25.0000 1.0000
62.7200 20.0000 1.0000
62.7300 28.0000 1.0000
62.7400 32.0000 1.0000
62.7500 19.0000 1.0000
62.7600 26.0000 1.0000
62.7700 27.0000 1.0000
62.7800 21.0000 1.0000
62.7900 28.0000 1.0000
62.8000 33.0000 1.0000
62.8100 23.0000 1.0000
62.8200 25.0000 1.0000
62.8300 21.0000 1.0000
62.8400 27.0000 1.0000
62.8500 33.0000 1.0000
62.8600 21.0000 1.0000
62.8700 24.0000 1.0000
62.8800 19.0000 1.0000
62.8900 35.0000 1.0000
62.9000 31.0000 1.0000
62.9100 19.0000 1.0000
62.9200 20.0000 1.0000
62.9300 31.0000 1.0000
62.9400 20.0000 1.0000
62.9500 34.0000 1.0000
62.9600 25.0000 1.0000
62.9700 32.0000 1.0000
62.9800 28.0000 1.0000
62.9900 24.0000 1.0000
63.0000 26.0000 1.0000
63.0100 39.0000 1.0000
63.0200 41.0000 1.0000
63.0300 38.0000 1.0000
63.0400 27.0000 1.0000
63.0500 15.0000 1.0000
63.0600 20.0000 1.0000
63.0700 27.0000 1.0000
63.0800 30.0000 1.0000
63.0900 31.0000 1.0000
63.1000 31.0000 1.0000
63.1100 42.0000 1.0000
63.1200 36.0000 1.0000
63.1300 29.0000 1.0000
63.1400 22.0000 1.0000
63.1500 29.0000 1.0000
63.1600 30.0000 1.0000
63.1700 33.0000 1.0000
63.1800 20.0000 1.0000
63.1900 19.0000 1.0000
63.2000 28.0000 1.0000
63.2100 33.0000 1.0000
63.2200 26.0000 1.0000
63.2300 22.0000 1.0000
63.2400 33.0000 1.0000
63.2500 18.0000 1.0000
63.2600 32.0000 1.0000
63.2700 20.0000 1.0000
63.2800 27.0000 1.0000
63.2900 16.0000 1.0000
63.3000 24.0000 1.0000
63.3100 24.0000 1.0000
63.3200 26.0000 1.0000
63.3300 21.0000 1.0000
63.3400 26.0000 1.0000
63.3500 31.0000 1.0000
63.3600 31.0000 1.0000
63.3700 29.0000 1.0000
63.3800 30.0000 1.0000
63.3900 17.0000 1.0000
63.4000 25.0000 1.0000
63.4100 20.0000 1.0000
63.4200 25.0000 1.0000
63.4300 19.0000 1.0000
63.4400 27.0000 1.0000
63.4500 26.0000 1.0000
63.4600 27.0000 1.0000
63.4700 26.0000 1.0000
63.4800 29.0000 1.0000
63.4900 26.0000 1.0000
63.5000 30.0000 1.0000
63.5100 22.0000 1.0000
63.5200 33.0000 1.0000
63.5300 19.0000 1.0000
63.5400 23.0000 1.0000
63.5500 25.0000 1.0000
63.5600 37.0000 1.0000
63.5700 27.0000 1.0000
63.5800 17.0000 1.0000
63.5900 24.0000 1.0000
63.6000 27.0000 1.0000
63.6100 22.0000 1.0000
63.6200 30.0000 1.0000
63.6300 32.0000 1.0000
63.6400 29.0000 1.0000
63.6500 28.0000 1.0000
63.6600 27.0000 1.0000
63.6700 35.0000 1.0000
63.6800 23.0000 1.0000
63.6900 21.0000 1.0000
63.7000 18.0000 1.0000
63.7100 27.0000 1.0000
63.7200 30.0000 1.0000
63.7300 32.0000 1.0000
63.7400 30.0000 1.0000
63.7500 27.0000 1.0000
63.7600 36.0000 1.0000
63.7700 24.0000 1.0000
63.7800 34.0000 1.0000
63.7900 25.0000 1.0000
63.8000 27.0000 1.0000
63.8100 26.0000 1.0000
63.8200 31.0000 1.0000
63.8300 27.0000 1.0000
63.8400 37.0000 1.0000
63.8500 20.0000 1.0000
63.8600 32.0000 1.0000
63.8700 26.0000 1.0000
63.8800 36.0000 1.0000
63.8900 31.0000 1.0000
63.9000 23.0000 1.0000
63.9100 32.0000 1.0000
63.9200 34.0000 1.0000
63.9300 21.0000 1.0000
63.9400 25.0000 1.0000
63.9500 31.0000 1.0000
63.9600 26.0000 1.0000
63.9700 28.0000 1.0000
63.9800 17.0000 1.0000
63.9900 19.0000 1.0000
64.0000 25.0000 1.0000
64.0100 30.0000 1.0000
64.0200 27.0000 1.0000
64.0300 31.0000 1.0000
64.0400 21.0000 1.0000
64.0500 30.0000 1.0000
64.0600 27.0000 1.0000
64.0700 24.0000 1.0000
64.0800 25.0000 1.0000
64.0900 20.0000 1.0000
64.1000 23.0000 1.0000
64.1100 21.0000 1.0000
64.1200 33.0000 1.0000
64.1300 26.0000 1.0000
64.1400 28.0000 1.0000
64.1500 34.0000 1.0000
64.1600 29.0000 1.0000
64.1700 28.0000 1.0000
64.1800 30.0000 1.0000
64.1900 22.0000 1.0000
64.2000 27.0000 1.0000
64.2100 30.0000 1.0000
64.2200 24.0000 1.0000
64.2300 22.0000 1.0000
64.2400 24.0000 1.0000
64.2500 33.0000 1.0000
64.2600 23.0000 1.0000
64.2700 32.0000 1.0000
64.2800 27.0000 1.0000
64.2900 33.0000 1.0000
64.3000 29.0000 1.0000
64.3100 19.0000 1.0000
64.3200 15.0000 1.0000
64.3300 33.0000 1.0000
64.3400 31.0000 1.0000
64.3500 31.0000 1.0000
64.3600 16.0000 1.0000
64.3700 24.0000 1.0000
64.3800 26.0000 1.0000
64.3900 32.0000 1.0000
64.4000 23.0000 1.0000
64.4100 29.0000 1.0000
64.4200 26.0000 1.0000
64.4300 31.0000 1.0000
64.4400 22.0000 1.0000
64.4500 19.0000 1.0000
64.4600 28.0000 1.0000
64.4700 24.0000 1.0000
64.4800 32.0000 1.0000
64.4900 31.0000 1.0000
64.5000 31.0000 1.0000
64.5100 35.0000 1.0000
64.5200 27.0000 1.0000
64.5300 26.0000 1.0000
64.5400 33.0000 1.0000
64.5500 23.0000 1.0000
64.5600 29.0000 1.0000
64.5700 27.0000 1.0000
64.5800 32.0000 1.0000
64.5900 21.0000 1.0000
64.6000 27.0000 1.0000
64.6100 29.0000 1.0000
64.6200 28.0000 1.0000
64.6300 31.0000 1.0000
64.6400 29.0000 1.0000
64.6500 24.0000 1.0000
64.6600 30.0000 1.0000
64.6700 29.0000 1.0000
64.6800 30.0000 1.0000
64.6900 28.0000 1.0000
64.7000 30.0000 1.0000
64.7100 24.0000 1.0000
64.7200 28.0000 1.0000
64.7300 29.0000 1.0000
64.7400 20.0000 1.0000
64.7500 27.0000 1.0000
64.7600 23.0000 1.0000
64.7700 32.0000 1.0000
64.7800 33.0000 1.0000
64.7900 18.0000 1.0000
64.8000 23.0000 1.0000
64.8100 28.0000 1.0000
64.8200 24.0000 1.0000
64.8300 22.0000 1.0000
64.8400 23.0000 1.0000
64.8500 20.0000 1.0000
64.8600 23.0000 1.0000
64.8700 35.0000 1.0000
64.8800 22.0000 1.0000
64.8900 24.0000 1.0000
64.9000 37.0000 1.0000
64.9100 27.0000 1.0000
64.9200 22.0000 1.0000
64.9300 24.0000 1.0000
64.9400 26.0000 1.0000
64.9500 27.0000 1.0000
64.9600 38.0000 1.0000
64.9700 24.0000 1.0000
64.9800 35.0000 1.0000
64.9900 18.0000 1.0000
65.0000 29.0000 1.0000
65.0100 17.0000 1.0000
65.0200 27.0000 1.0000
65.0300 32.0000 1.0000
65.0400 27.0000 1.0000
65.0500 22.0000 1.0000
65.0600 22.0000 1.0000
65.0700 24.0000 1.0000
65.0800 25.0000 1.0000
65.0900 26.0000 1.0000
65.1000 19.0000 1.0000
65.1100 24.0000 1.0000
65.1200 22.0000 1.0000
65.1300 35.0000 1.0000
65.1400 18.0000 1.0000
65.1500 18.0000 1.0000
65.1600 25.0000 1.0000
65.1700 19.0000 1.0000
65.1800 34.0000 1.0000
65.1900 27.0000 1.0000
65.2000 29.0000 1.0000
65.2100 29.0000 1.0000
65.2200 26.0000 1.0000
65.2300 22.0000 1.0000
65.2400 20.0000 1.0000
65.2500 26.0000 1.0000
65.2600 28.0000 1.0000
65.2700 30.0000 1.0000
65.2800 21.0000 1.0000
65.2900 27.0000 1.0000
65.3000 14.0000 1.0000
65.3100 23.0000 1.0000
65.3200 24.0000 1.0000
65.3300 29.0000 1.0000
65.3400 36.0000 1.0000
65.3500 18.0000 1.0000
65.3600 18.0000 1.0000
65.3700 18.0000 1.0000
65.3800 27.0000 1.0000
65.3900 35.0000 1.0000
65.4000 35.0000 1.0000
65.4100 30.0000 1.0000
65.4200 21.0000 1.0000
65.4300 32.0000 1.0000
65.4400 24.0000 1.0000
65.4500 24.0000 1.0000
65.4600 25.0000 1.0000
65.4700 27.0000 1.0000
65.4800 30.0000 1.0000
65.4900 27.0000 1.0000
65.5000 20.0000 1.0000
65.5100 35.0000 1.0000
65.5200 27.0000 1.0000
65.5300 19.0000 1.0000
65.5400 39.0000 1.0000
65.5500 22.0000 1.0000
65.5600 27.0000 1.0000
65.5700 27.0000 1.0000
65.5800 25.0000 1.0000
65.5900 23.0000 1.0000
65.6000 27.0000 1.0000
65.6100 30.0000 1.0000
65.6200 23.0000 1.0000
65.6300 24.0000 1.0000
65.6400 33.0000 1.0000
65.6500 28.0000 1.0000
65.6600 37.0000 1.0000
65.6700 25.0000 1.0000
65.6800 25.0000 1.0000
65.6900 20.0000 1.0000
65.7000 26.0000 1.0000
65.7100 31.0000 1.0000
65.7200 26.0000 1.0000
65.7300 19.0000 1.0000
65.7400 22.0000 1.0000
65.7500 28.0000 1.0000
65.7600 35.0000 1.0000
65.7700 22.0000 1.0000
65.7800 22.0000 1.0000
65.7900 20.0000 1.0000
65.8000 30.0000 1.0000
65.8100 17.0000 1.0000
65.8200 29.0000 1.0000
65.8300 28.0000 1.0000
65.8400 28.0000 1.0000
65.8500 20.0000 1.0000
65.8600 29.0000 1.0000
65.8700 31.0000 1.0000
65.8800 31.0000 1.0000
65.8900 25.0000 1.0000
65.9000 29.0000 1.0000
65.9100 21.0000 1.0000
65.9200 28.0000 1.0000
65.9300 21.0000 1.0000
65.9400 28.0000 1.0000
65.9500 32.0000 1.0000
65.9600 22.0000 1.0000
65.9700 30.0000 1.0000
65.9800 33.0000 1.0000
65.9900 21.0000 1.0000
66.0000 30.0000 1.0000
66.0100 31.0000 1.0000
66.0200 23.0000 1.0000
66.0300 32.0000 1.0000
66.0400 22.0000 1.0000
66.0500 20.0000 1.0000
66.0600 25.0000 1.0000
66.0700 27.0000 1.0000
66.0800 29.0000 1.0000
66.0900 30.0000 1.0000
66.1000 26.0000 1.0000
66.1100 24.0000 1.0000
66.1200 23.0000 1.0000
66.1300 21.0000 1.0000
66.1400 11.0000 1.0000
66.1500 19.0000 1.0000
66.1600 28.0000 1.0000
66.1700 33.0000 1.0000
66.1800 19.0000 1.0000
66.1900 23.0000 1.0000
66.2000 24.0000 1.0000
66.2100 18.0000 1.0000
66.2200 23.0000 1.0000
66.2300 28.0000 1.0000
66.2400 25.0000 1.0000
66.2500 20.0000 1.0000
66.2600 24.0000 1.0000
66.2700 31.0000 1.0000
66.2800 23.0000 1.0000
66.2900 29.0000 1.0000
66.3000 33.0000 1.0000
66.3100 27.0000 1.0000
66.3200 29.0000 1.0000
66.3300 27.0000 1.0000
66.3400 18.0000 1.0000
66.3500 24.0000 1.0000
66.3600 31.0000 1.0000
66.3700 43.0000 1.0000
66.3800 31.0000 1.0000
66.3900 29.0000 1.0000
66.4000 28.0000 1.0000
66.4100 25.0000 1.0000
66.4200 25.0000 1.0000
66.4300 25.0000 1.0000
66.4400 25.0000 1.0000
66.4500 22.0000 1.0000
66.4600 28.0000 1.0000
66.4700 29.0000 1.0000
66.4800 25.0000 1.0000
66.4900 20.0000 1.0000
66.5000 25.0000 1.0000
66.5100 24.0000 1.0000
66.5200 21.0000 1.0000
66.5300 31.0000 1.0000
66.5400 26.0000 1.0000
66.5500 30.0000 1.0000
66.5600 37.0000 1.0000
66.5700 30.0000 1.0000
66.5800 21.0000 1.0000
66.5900 20.0000 1.0000
66.6000 25.0000 1.0000
66.6100 23.0000 1.0000
66.6200 27.0000 1.0000
66.6300 26.0000 1.0000
66.6400 25.0000 1.0000
66.6500 26.0000 1.0000
66.6600 27.0000 1.0000
66.6700 28.0000 1.0000
66.6800 27.0000 1.0000
66.6900 24.0000 1.0000
66.7000 28.0000 1.0000
66.7100 27.0000 1.0000
66.7200 30.0000 1.0000
66.7300 21.0000 1.0000
66.7400 30.0000 1.0000
66.7500 32.0000 1.0000
66.7600 25.0000 1.0000
66.7700 23.0000 1.0000
66.7800 32.0000 1.0000
66.7900 26.0000 1.0000
66.8000 22.0000 1.0000
66.8100 29.0000 1.0000
66.8200 28.0000 1.0000
66.8300 27.0000 1.0000
66.8400 16.0000 1.0000
66.8500 27.0000 1.0000
66.8600 30.0000 1.0000
66.8700 22.0000 1.0000
66.8800 23.0000 1.0000
66.8900 24.0000 1.0000
66.9000 29.0000 1.0000
66.9100 20.0000 1.0000
66.9200 30.0000 1.0000
66.9300 35.0000 1.0000
66.9400 23.0000 1.0000
66.9500 29.0000 1.0000
66.9600 29.0000 1.0000
66.9700 23.0000 1.0000
66.9800 30.0000 1.0000
66.9900 33.0000 1.0000
67.0000 30.0000 1.0000
67.0100 36.0000 1.0000
67.0200 30.0000 1.0000
67.0300 20.0000 1.0000
67.0400 30.0000 1.0000
67.0500 37.0000 1.0000
67.0600 33.0000 1.0000
67.0700 33.0000 1.0000
67.0800 27.0000 1.0000
67.0900 22.0000 1.0000
67.1000 23.0000 1.0000
67.1100 35.0000 1.0000
67.1200 26.0000 1.0000
67.1300 35.0000 1.0000
67.1400 30.0000 1.0000
67.1500 20.0000 1.0000
67.1600 31.0000 1.0000
67.1700 27.0000 1.0000
67.1800 32.0000 1.0000
67.1900 29.0000 1.0000
67.2000 47.0000 1.0000
67.2100 35.0000 1.0000
67.2200 34.0000 1.0000
67.2300 34.0000 1.0000
67.2400 36.0000 1.0000
67.2500 35.0000 1.0000
67.2600 32.0000 1.0000
67.2700 38.0000 1.0000
67.2800 45.0000 1.0000
67.2900 35.0000 1.0000
67.3000 31.0000 1.0000
67.3100 46.0000 1.0000
67.3200 36.0000 1.0000
67.3300 39.0000 1.0000
67.3400 32.0000 1.0000
67.3500 37.0000 1.0000
67.3600 27.0000 1.0000
67.3700 43.0000 1.0000
67.3800 37.0000 1.0000
67.3900 47.0000 1.0000
67.4000 36.0000 1.0000
67.4100 30.0000 1.0000
67.4200 33.0000 1.0000
67.4300 36.0000 1.0000
67.4400 22.0000 1.0000
67.4500 43.0000 1.0000
67.4600 45.0000 1.0000
67.4700 37.0000 1.0000
67.4800 34.0000 1.0000
67.4900 36.0000 1.0000
67.5000 26.0000 1.0000
67.5100 18.0000 1.0000
67.5200 35.0000 1.0000
67.5300 30.0000 1.0000
67.5400 22.0000 1.0000
67.5500 38.0000 1.0000
67.5600 44.0000 1.0000
67.5700 37.0000 1.0000
67.5800 39.0000 1.0000
67.5900 32.0000 1.0000
67.6000 25.0000 1.0000
67.6100 26.0000 1.0000
67.6200 32.0000 1.0000
67.6300 35.0000 1.0000
67.6400 25.0000 1.0000
67.6500 30.0000 1.0000
67.6600 38.0000 1.0000
67.6700 31.0000 1.0000
67.6800 30.0000 1.0000
67.6900 27.0000 1.0000
67.7000 25.0000 1.0000
67.7100 33.0000 1.0000
67.7200 32.0000 1.0000
67.7300 35.0000 1.0000
67.7400 28.0000 1.0000
67.7500 27.0000 1.0000
67.7600 22.0000 1.0000
67.7700 31.0000 1.0000
67.7800 29.0000 1.0000
67.7900 39.0000 1.0000
67.8000 21.0000 1.0000
67.8100 28.0000 1.0000
67.8200 25.0000 1.0000
67.8300 29.0000 1.0000
67.8400 31.0000 1.0000
67.8500 28.0000 1.0000
67.8600 31.0000 1.0000
67.8700 32.0000 1.0000
67.8800 35.0000 1.0000
67.8900 34.0000 1.0000
67.9000 35.0000 1.0000
67.9100 26.0000 1.0000
67.9200 31.0000 1.0000
67.9300 34.0000 1.0000
67.9400 30.0000 1.0000
67.9500 19.0000 1.0000
67.9600 27.0000 1.0000
67.9700 25.0000 1.0000
67.9800 31.0000 1.0000
67.9900 34.0000 1.0000
68.0000 31.0000 1.0000
68.0100 25.0000 1.0000
68.0200 25.0000 1.0000
68.0300 33.0000 1.0000
68.0400 28.0000 1.0000
68.0500 31.0000 1.0000
68.0600 31.0000 1.0000
68.0700 25.0000 1.0000
68.0800 26.0000 1.0000
68.0900 31.0000 1.0000
68.1000 15.0000 1.0000
68.1100 28.0000 1.0000
68.1200 13.0000 1.0000
68.1300 25.0000 1.0000
68.1400 21.0000 1.0000
68.1500 26.0000 1.0000
68.1600 19.0000 1.0000
68.1700 22.0000 1.0000
68.1800 15.0000 1.0000
68.1900 17.0000 1.0000
68.2000 25.0000 1.0000
68.2100 18.0000 1.0000
68.2200 36.0000 1.0000
68.2300 30.0000 1.0000
68.2400 16.0000 1.0000
68.2500 28.0000 1.0000
68.2600 25.0000 1.0000
68.2700 26.0000 1.0000
68.2800 20.0000 1.0000
68.2900 31.0000 1.0000
68.3000 25.0000 1.0000
68.3100 22.0000 1.0000
68.3200 17.0000 1.0000
68.3300 23.0000 1.0000
68.3400 28.0000 1.0000
68.3500 28.0000 1.0000
68.3600 29.0000 1.0000
68.3700 32.0000 1.0000
68.3800 28.0000 1.0000
68.3900 23.0000 1.0000
68.4000 23.0000 1.0000
68.4100 27.0000 1.0000
68.4200 20.0000 1.0000
68.4300 30.0000 1.0000
68.4400 20.0000 1.0000
68.4500 26.0000 1.0000
68.4600 21.0000 1.0000
68.4700 23.0000 1.0000
68.4800 22.0000 1.0000
68.4900 23.0000 1.0000
68.5000 26.0000 1.0000
68.5100 26.0000 1.0000
68.5200 18.0000 1.0000
68.5300 32.0000 1.0000
68.5400 30.0000 1.0000
68.5500 29.0000 1.0000
68.5600 29.0000 1.0000
68.5700 29.0000 1.0000
68.5800 25.0000 1.0000
68.5900 19.0000 1.0000
68.6000 33.0000 1.0000
68.6100 34.0000 1.0000
68.6200 25.0000 1.0000
68.6300 31.0000 1.0000
68.6400 22.0000 1.0000
68.6500 24.0000 1.0000
68.6600 25.0000 1.0000
68.6700 18.0000 1.0000
68.6800 27.0000 1.0000
68.6900 23.0000 1.0000
68.7000 24.0000 1.0000
68.7100 29.0000 1.0000
68.7200 29.0000 1.0000
68.7300 19.0000 1.0000
68.7400 22.0000 1.0000
68.7500 21.0000 1.0000
68.7600 27.0000 1.0000
68.7700 23.0000 1.0000
68.7800 26.0000 1.0000
68.7900 29.0000 1.0000
68.8000 22.0000 1.0000
68.8100 23.0000 1.0000
68.8200 23.0000 1.0000
68.8300 27.0000 1.0000
68.8400 28.0000 1.0000
68.8500 22.0000 1.0000
68.8600 27.0000 1.0000
68.8700 25.0000 1.0000
68.8800 29.0000 1.0000
68.8900 20.0000 1.0000
68.9000 29.0000 1.0000
68.9100 22.0000 1.0000
68.9200 22.0000 1.0000
68.9300 29.0000 1.0000
68.9400 18.0000 1.0000
68.9500 16.0000 1.0000
68.9600 25.0000 1.0000
68.9700 19.0000 1.0000
68.9800 28.0000 1.0000
68.9900 23.0000 1.0000
69.0000 15.0000 1.0000
69.0100 18.0000 1.0000
69.0200 23.0000 1.0000
69.0300 32.0000 1.0000
69.0400 23.0000 1.0000
69.0500 24.0000 1.0000
69.0600 23.0000 1.0000
69.0700 25.0000 1.0000
69.0800 21.0000 1.0000
69.0900 24.0000 1.0000
69.1000 29.0000 1.0000
69.1100 23.0000 1.0000
69.1200 22.0000 1.0000
69.1300 25.0000 1.0000
69.1400 25.0000 1.0000
69.1500 20.0000 1.0000
69.1600 22.0000 1.0000
69.1700 32.0000 1.0000
69.1800 27.0000 1.0000
69.1900 29.0000 1.0000
69.2000 24.0000 1.0000
69.2100 26.0000 1.0000
69.2200 26.0000 1.0000
69.2300 28.0000 1.0000
69.2400 24.0000 1.0000
69.2500 27.0000 1.0000
69.2600 32.0000 1.0000
69.2700 35.0000 1.0000
69.2800 31.0000 1.0000
69.2900 27.0000 1.0000
69.3000 18.0000 1.0000
69.3100 23.0000 1.0000
69.3200 28.0000 1.0000
69.3300 31.0000 1.0000
69.3400 33.0000 1.0000
69.3500 23.0000 1.0000
69.3600 25.0000 1.0000
69.3700 23.0000 1.0000
69.3800 16.0000 1.0000
69.3900 23.0000 1.0000
69.4000 30.0000 1.0000
69.4100 25.0000 1.0000
69.4200 21.0000 1.0000
69.4300 25.0000 1.0000
69.4400 29.0000 1.0000
69.4500 16.0000 1.0000
69.4600 28.0000 1.0000
69.4700 20.0000 1.0000
69.4800 27.0000 1.0000
69.4900 24.0000 1.0000
69.5000 25.0000 1.0000
69.5100 25.0000 1.0000
69.5200 26.0000 1.0000
69.5300 29.0000 1.0000
69.5400 18.0000 1.0000
69.5500 28.0000 1.0000
69.5600 19.0000 1.0000
69.5700 29.0000 1.0000
69.5800 25.0000 1.0000
69.5900 24.0000 1.0000
69.6000 25.0000 1.0000
69.6100 33.0000 1.0000
69.6200 18.0000 1.0000
69.6300 25.0000 1.0000
69.6400 24.0000 1.0000
69.6500 20.0000 1.0000
69.6600 31.0000 1.0000
69.6700 32.0000 1.0000
69.6800 30.0000 1.0000
69.6900 33.0000 1.0000
69.7000 33.0000 1.0000
69.7100 28.0000 1.0000
69.7200 17.0000 1.0000
69.7300 29.0000 1.0000
69.7400 39.0000 1.0000
69.7500 24.0000 1.0000
69.7600 23.0000 1.0000
69.7700 26.0000 1.0000
69.7800 21.0000 1.0000
69.7900 17.0000 1.0000
69.8000 22.0000 1.0000
69.8100 22.0000 1.0000
69.8200 32.0000 1.0000
69.8300 30.0000 1.0000
69.8400 22.0000 1.0000
69.8500 18.0000 1.0000
69.8600 31.0000 1.0000
69.8700 25.0000 1.0000
69.8800 18.0000 1.0000
69.8900 30.0000 1.0000
69.9000 27.0000 1.0000
69.9100 27.0000 1.0000
69.9200 31.0000 1.0000
69.9300 37.0000 1.0000
69.9400 28.0000 1.0000
69.9500 33.0000 1.0000
69.9600 30.0000 1.0000
69.9700 36.0000 1.0000
69.9800 29.0000 1.0000
69.9900 37.0000 1.0000
70.0000 39.0000 1.0000
70.0100 40.0000 1.0000
70.0200 19.0000 1.0000
70.0300 24.0000 1.0000
70.0400 31.0000 1.0000
70.0500 27.0000 1.0000
70.0600 24.0000 1.0000
70.0700 33.0000 1.0000
70.0800 24.0000 1.0000
70.0900 36.0000 1.0000
70.1000 22.0000 1.0000
70.1100 24.0000 1.0000
70.1200 30.0000 1.0000
70.1300 28.0000 1.0000
70.1400 34.0000 1.0000
70.1500 22.0000 1.0000
70.1600 26.0000 1.0000
70.1700 18.0000 1.0000
70.1800 19.0000 1.0000
70.1900 28.0000 1.0000
70.2000 30.0000 1.0000
70.2100 26.0000 1.0000
70.2200 23.0000 1.0000
70.2300 12.0000 1.0000
70.2400 20.0000 1.0000
70.2500 28.0000 1.0000
70.2600 23.0000 1.0000
70.2700 17.0000 1.0000
70.2800 16.0000 1.0000
70.2900 26.0000 1.0000
70.3000 31.0000 1.0000
70.3100 23.0000 1.0000
70.3200 30.0000 1.0000
70.3300 26.0000 1.0000
70.3400 29.0000 1.0000
70.3500 30.0000 1.0000
70.3600 24.0000 1.0000
70.3700 16.0000 1.0000
70.3800 24.0000 1.0000
70.3900 35.0000 1.0000
70.4000 19.0000 1.0000
70.4100 19.0000 1.0000
70.4200 18.0000 1.0000
70.4300 15.0000 1.0000
70.4400 22.0000 1.0000
70.4500 27.0000 1.0000
70.4600 29.0000 1.0000
70.4700 31.0000 1.0000
70.4800 31.0000 1.0000
70.4900 20.0000 1.0000
70.5000 29.0000 1.0000
70.5100 25.0000 1.0000
70.5200 31.0000 1.0000
70.5300 19.0000 1.0000
70.5400 29.0000 1.0000
70.5500 32.0000 1.0000
70.5600 28.0000 1.0000
70.5700 26.0000 1.0000
70.5800 22.0000 1.0000
70.5900 20.0000 1.0000
70.6000 29.0000 1.0000
70.6100 25.0000 1.0000
70.6200 25.0000 1.0000
70.6300 22.0000 1.0000
70.6400 25.0000 1.0000
70.6500 29.0000 1.0000
70.6600 25.0000 1.0000
70.6700 32.0000 1.0000
70.6800 35.0000 1.0000
70.6900 21.0000 1.0000
70.7000 29.0000 1.0000
70.7100 24.0000 1.0000
70.7200 26.0000 1.0000
70.7300 17.0000 1.0000
70.7400 25.0000 1.0000
70.7500 25.0000 1.0000
70.7600 18.0000 1.0000
70.7700 28.0000 1.0000
70.7800 23.0000 1.0000
70.7900 28.0000 1.0000
70.8000 21.0000 1.0000
70.8100 25.0000 1.0000
70.8200 21.0000 1.0000
70.8300 15.0000 1.0000
70.8400 26.0000 1.0000
70.8500 23.0000 1.0000
70.8600 23.0000 1.0000
70.8700 32.0000 1.0000
70.8800 20.0000 1.0000
70.8900 26.0000 1.0000
70.9000 20.0000 1.0000
70.9100 34.0000 1.0000
70.9200 24.0000 1.0000
70.9300 26.0000 1.0000
70.9400 27.0000 1.0000
70.9500 17.0000 1.0000
70.9600 23.0000 1.0000
70.9700 32.0000 1.0000
70.9800 26.0000 1.0000
70.9900 25.0000 1.0000
71.0000 20.0000 1.0000
71.0100 29.0000 1.0000
71.0200 21.0000 1.0000
71.0300 18.0000 1.0000
71.0400 27.0000 1.0000
71.0500 23.0000 1.0000
71.0600 26.0000 1.0000
71.0700 21.0000 1.0000
71.0800 27.0000 1.0000
71.0900 19.0000 1.0000
71.1000 23.0000 1.0000
71.1100 18.0000 1.0000
71.1200 29.0000 1.0000
71.1300 31.0000 1.0000
71.1400 19.0000 1.0000
71.1500 26.0000 1.0000
71.1600 19.0000 1.0000
71.1700 17.0000 1.0000
71.1800 26.0000 1.0000
71.1900 20.0000 1.0000
71.2000 21.0000 1.0000
71.2100 19.0000 1.0000
71.2200 20.0000 1.0000
71.2300 34.0000 1.0000
71.2400 23.0000 1.0000
71.2500 28.0000 1.0000
71.2600 16.0000 1.0000
71.2700 20.0000 1.0000
71.2800 19.0000 1.0000
71.2900 26.0000 1.0000
71.3000 26.0000 1.0000
71.3100 17.0000 1.0000
71.3200 26.0000 1.0000
71.3300 33.0000 1.0000
71.3400 27.0000 1.0000
71.3500 27.0000 1.0000
71.3600 28.0000 1.0000
71.3700 23.0000 1.0000
71.3800 23.0000 1.0000
71.3900 28.0000 1.0000
71.4000 10.0000 1.0000
71.4100 21.0000 1.0000
71.4200 28.0000 1.0000
71.4300 24.0000 1.0000
71.4400 34.0000 1.0000
71.4500 21.0000 1.0000
71.4600 20.0000 1.0000
71.4700 27.0000 1.0000
71.4800 21.0000 1.0000
71.4900 30.0000 1.0000
71.5000 30.0000 1.0000
71.5100 24.0000 1.0000
71.5200 22.0000 1.0000
71.5300 27.0000 1.0000
71.5400 22.0000 1.0000
71.5500 29.0000 1.0000
71.5600 34.0000 1.0000
71.5700 25.0000 1.0000
71.5800 22.0000 1.0000
71.5900 16.0000 1.0000
71.6000 26.0000 1.0000
71.6100 23.0000 1.0000
71.6200 32.0000 1.0000
71.6300 28.0000 1.0000
71.6400 26.0000 1.0000
71.6500 22.0000 1.0000
71.6600 16.0000 1.0000
71.6700 18.0000 1.0000
71.6800 31.0000 1.0000
71.6900 28.0000 1.0000
71.7000 27.0000 1.0000
71.7100 12.0000 1.0000
71.7200 28.0000 1.0000
71.7300 29.0000 1.0000
71.7400 23.0000 1.0000
71.7500 22.0000 1.0000
71.7600 31.0000 1.0000
71.7700 22.0000 1.0000
71.7800 17.0000 1.0000
71.7900 16.0000 1.0000
71.8000 24.0000 1.0000
71.8100 23.0000 1.0000
71.8200 28.0000 1.0000
71.8300 20.0000 1.0000
71.8400 26.0000 1.0000
71.8500 23.0000 1.0000
71.8600 22.0000 1.0000
71.8700 33.0000 1.0000
71.8800 33.0000 1.0000
71.8900 22.0000 1.0000
71.9000 25.0000 1.0000
71.9100 22.0000 1.0000
71.9200 25.0000 1.0000
71.9300 23.0000 1.0000
71.9400 18.0000 1.0000
71.9500 30.0000 1.0000
71.9600 14.0000 1.0000
71.9700 20.0000 1.0000
71.9800 28.0000 1.0000
71.9900 26.0000 1.0000
72.0000 22.0000 1.0000
72.0100 30.0000 1.0000
72.0200 34.0000 1.0000
72.0300 23.0000 1.0000
72.0400 32.0000 1.0000
72.0500 11.0000 1.0000
72.0600 24.0000 1.0000
72.0700 24.0000 1.0000
72.0800 17.0000 1.0000
72.0900 20.0000 1.0000
72.1000 29.0000 1.0000
72.1100 26.0000 1.0000
72.1200 16.0000 1.0000
72.1300 25.0000 1.0000
72.1400 22.0000 1.0000
72.1500 21.0000 1.0000
72.1600 22.0000 1.0000
72.1700 27.0000 1.0000
72.1800 19.0000 1.0000
72.1900 18.0000 1.0000
72.2000 30.0000 1.0000
72.2100 23.0000 1.0000
72.2200 18.0000 1.0000
72.2300 31.0000 1.0000
72.2400 16.0000 1.0000
72.2500 26.0000 1.0000
72.2600 18.0000 1.0000
72.2700 26.0000 1.0000
72.2800 23.0000 1.0000
72.2900 22.0000 1.0000
72.3000 22.0000 1.0000
72.3100 28.0000 1.0000
72.3200 23.0000 1.0000
72.3300 28.0000 1.0000
72.3400 21.0000 1.0000
72.3500 33.0000 1.0000
72.3600 24.0000 1.0000
72.3700 26.0000 1.0000
72.3800 28.0000 1.0000
72.3900 14.0000 1.0000
72.4000 30.0000 1.0000
72.4100 28.0000 1.0000
72.4200 35.0000 1.0000
72.4300 26.0000 1.0000
72.4400 27.0000 1.0000
72.4500 21.0000 1.0000
72.4600 28.0000 1.0000
72.4700 17.0000 1.0000
72.4800 16.0000 1.0000
72.4900 33.0000 1.0000
72.5000 28.0000 1.0000
72.5100 23.0000 1.0000
72.5200 20.0000 1.0000
72.5300 23.0000 1.0000
72.5400 23.0000 1.0000
72.5500 25.0000 1.0000
72.5600 19.0000 1.0000
72.5700 30.0000 1.0000
72.5800 27.0000 1.0000
72.5900 20.0000 1.0000
72.6000 24.0000 1.0000
72.6100 16.0000 1.0000
72.6200 24.0000 1.0000
72.6300 19.0000 1.0000
72.6400 27.0000 1.0000
72.6500 31.0000 1.0000
72.6600 21.0000 1.0000
72.6700 27.0000 1.0000
72.6800 29.0000 1.0000
72.6900 23.0000 1.0000
72.7000 27.0000 1.0000
72.7100 33.0000 1.0000
72.7200 29.0000 1.0000
72.7300 25.0000 1.0000
72.7400 13.0000 1.0000
72.7500 24.0000 1.0000
72.7600 25.0000 1.0000
72.7700 32.0000 1.0000
72.7800 20.0000 1.0000
72.7900 26.0000 1.0000
72.8000 17.0000 1.0000
72.8100 26.0000 1.0000
72.8200 27.0000 1.0000
72.8300 30.0000 1.0000
72.8400 32.0000 1.0000
72.8500 34.0000 1.0000
72.8600 31.0000 1.0000
72.8700 25.0000 1.0000
72.8800 25.0000 1.0000
72.8900 28.0000 1.0000
72.9000 25.0000 1.0000
72.9100 26.0000 1.0000
72.9200 27.0000 1.0000
72.9300 25.0000 1.0000
72.9400 25.0000 1.0000
72.9500 30.0000 1.0000
72.9600 17.0000 1.0000
72.9700 28.0000 1.0000
72.9800 28.0000 1.0000
72.9900 33.0000 1.0000
73.0000 29.0000 1.0000
73.0100 23.0000 1.0000
73.0200 32.0000 1.0000
73.0300 36.0000 1.0000
73.0400 28.0000 1.0000
73.0500 31.0000 1.0000
73.0600 26.0000 1.0000
73.0700 22.0000 1.0000
73.0800 35.0000 1.0000
73.0900 23.0000 1.0000
73.1000 26.0000 1.0000
73.1100 35.0000 1.0000
73.1200 35.0000 1.0000
73.1300 23.0000 1.0000
73.1400 42.0000 1.0000
73.1500 33.0000 1.0000
73.1600 21.0000 1.0000
73.1700 26.0000 1.0000
73.1800 24.0000 1.0000
73.1900 33.0000 1.0000
73.2000 23.0000 1.0000
73.2100 33.0000 1.0000
73.2200 32.0000 1.0000
73.2300 21.0000 1.0000
73.2400 39.0000 1.0000
73.2500 31.0000 1.0000
73.2600 25.0000 1.0000
73.2700 37.0000 1.0000
73.2800 32.0000 1.0000
73.2900 35.0000 1.0000
73.3000 25.0000 1.0000
73.3100 35.0000 1.0000
73.3200 43.0000 1.0000
73.3300 37.0000 1.0000
73.3400 37.0000 1.0000
73.3500 28.0000 1.0000
73.3600 45.0000 1.0000
73.3700 33.0000 1.0000
73.3800 46.0000 1.0000
73.3900 44.0000 1.0000
73.4000 44.0000 1.0000
73.4100 41.0000 1.0000
73.4200 41.0000 1.0000
73.4300 56.0000 1.0000
73.4400 53.0000 1.0000
73.4500 44.0000 1.0000
73.4600 63.0000 1.0000
73.4700 46.0000 1.0000
73.4800 35.0000 1.0000
73.4900 51.0000 1.0000
73.5000 44.0000 1.0000
73.5100 43.0000 1.0000
73.5200 55.0000 1.0000
73.5300 51.0000 1.0000
73.5400 46.0000 1.0000
73.5500 52.0000 1.0000
73.5600 42.0000 1.0000
73.5700 60.0000 1.0000
73.5800 61.0000 1.0000
73.5900 56.0000 1.0000
73.6000 49.0000 1.0000
73.6100 59.0000 1.0000
73.6200 45.0000 1.0000
73.6300 52.0000 1.0000
73.6400 57.0000 1.0000
73.6500 45.0000 1.0000
73.6600 60.0000 1.0000
73.6700 53.0000 1.0000
73.6800 55.0000 1.0000
73.6900 58.0000 1.0000
73.7000 47.0000 1.0000
73.7100 63.0000 1.0000
73.7200 61.0000 1.0000
73.7300 45.0000 1.0000
73.7400 56.0000 1.0000
73.7500 40.0000 1.0000
73.7600 50.0000 1.0000
73.7700 55.0000 1.0000
73.7800 52.0000 1.0000
73.7900 45.0000 1.0000
73.8000 60.0000 1.0000
73.8100 52.0000 1.0000
73.8200 49.0000 1.0000
73.8300 58.0000 1.0000
73.8400 50.0000 1.0000
73.8500 42.0000 1.0000
73.8600 57.0000 1.0000
73.8700 52.0000 1.0000
73.8800 56.0000 1.0000
73.8900 46.0000 1.0000
73.9000 46.0000 1.0000
73.9100 44.0000 1.0000
73.9200 46.0000 1.0000
73.9300 48.0000 1.0000
73.9400 46.0000 1.0000
73.9500 39.0000 1.0000
73.9600 34.0000 1.0000
73.9700 36.0000 1.0000
73.9800 43.0000 1.0000
73.9900 33.0000 1.0000
74.0000 37.0000 1.0000
74.0100 24.0000 1.0000
74.0200 37.0000 1.0000
74.0300 32.0000 1.0000
74.0400 42.0000 1.0000
74.0500 23.0000 1.0000
74.0600 34.0000 1.0000
74.0700 45.0000 1.0000
74.0800 22.0000 1.0000
74.0900 37.0000 1.0000
74.1000 32.0000 1.0000
74.1100 40.0000 1.0000
74.1200 41.0000 1.0000
74.1300 39.0000 1.0000
74.1400 37.0000 1.0000
74.1500 37.0000 1.0000
74.1600 29.0000 1.0000
74.1700 24.0000 1.0000
74.1800 27.0000 1.0000
74.1900 24.0000 1.0000
74.2000 26.0000 1.0000
74.2100 33.0000 1.0000
74.2200 23.0000 1.0000
74.2300 19.0000 1.0000
74.2400 29.0000 1.0000
74.2500 23.0000 1.0000
74.2600 25.0000 1.0000
74.2700 18.0000 1.0000
74.2800 35.0000 1.0000
74.2900 33.0000 1.0000
74.3000 21.0000 1.0000
74.3100 33.0000 1.0000
74.3200 25.0000 1.0000
74.3300 24.0000 1.0000
74.3400 29.0000 1.0000
74.3500 16.0000 1.0000
74.3600 33.0000 1.0000
74.3700 26.0000 1.0000
74.3800 34.0000 1.0000
74.3900 28.0000 1.0000
74.4000 34.0000 1.0000
74.4100 25.0000 1.0000
74.4200 26.0000 1.0000
74.4300 23.0000 1.0000
74.4400 27.0000 1.0000
74.4500 25.0000 1.0000
74.4600 21.0000 1.0000
74.4700 25.0000 1.0000
74.4800 26.0000 1.0000
74.4900 26.0000 1.0000
74.5000 21.0000 1.0000
74.5100 39.0000 1.0000
74.5200 29.0000 1.0000
74.5300 31.0000 1.0000
74.5400 33.0000 1.0000
74.5500 33.0000 1.0000
74.5600 26.0000 1.0000
74.5700 17.0000 1.0000
74.5800 28.0000 1.0000
74.5900 22.0000 1.0000
74.6000 18.0000 1.0000
74.6100 14.0000 1.0000
74.6200 18.0000 1.0000
74.6300 23.0000 1.0000
74.6400 23.0000 1.0000
74.6500 20.0000 1.0000
74.6600 20.0000 1.0000
74.6700 27.0000 1.0000
74.6800 17.0000 1.0000
74.6900 20.0000 1.0000
74.7000 24.0000 1.0000
74.7100 25.0000 1.0000
74.7200 27.0000 1.0000
74.7300 31.0000 1.0000
74.7400 18.0000 1.0000
74.7500 20.0000 1.0000
74.7600 24.0000 1.0000
74.7700 26.0000 1.0000
74.7800 28.0000 1.0000
74.7900 30.0000 1.0000
74.8000 16.0000 1.0000
74.8100 25.0000 1.0000
74.8200 23.0000 1.0000
74.8300 17.0000 1.0000
74.8400 27.0000 1.0000
74.8500 24.0000 1.0000
74.8600 19.0000 1.0000
74.8700 21.0000 1.0000
74.8800 28.0000 1.0000
74.8900 22.0000 1.0000
74.9000 20.0000 1.0000
74.9100 16.0000 1.0000
74.9200 26.0000 1.0000
74.9300 22.0000 1.0000
74.9400 21.0000 1.0000
74.9500 32.0000 1.0000
74.9600 33.0000 1.0000
74.9700 21.0000 1.0000
74.9800 17.0000 1.0000
74.9900 20.0000 1.0000
75.0000 21.0000 1.0000
75.0100 22.0000 1.0000
75.0200 15.0000 1.0000
75.0300 26.0000 1.0000
75.0400 25.0000 1.0000
75.0500 27.0000 1.0000
75.0600 20.0000 1.0000
75.0700 15.0000 1.0000
75.0800 28.0000 1.0000
75.0900 21.0000 1.0000
75.1000 22.0000 1.0000
75.1100 24.0000 1.0000
75.1200 22.0000 1.0000
75.1300 22.0000 1.0000
75.1400 22.0000 1.0000
75.1500 25.0000 1.0000
75.1600 16.0000 1.0000
75.1700 25.0000 1.0000
75.1800 19.0000 1.0000
75.1900 24.0000 1.0000
75.2000 22.0000 1.0000
75.2100 21.0000 1.0000
75.2200 21.0000 1.0000
75.2300 28.0000 1.0000
75.2400 20.0000 1.0000
75.2500 21.0000 1.0000
75.2600 16.0000 1.0000
75.2700 29.0000 1.0000
75.2800 21.0000 1.0000
75.2900 24.0000 1.0000
75.3000 22.0000 1.0000
75.3100 21.0000 1.0000
75.3200 32.0000 1.0000
75.3300 27.0000 1.0000
75.3400 25.0000 1.0000
75.3500 22.0000 1.0000
75.3600 19.0000 1.0000
75.3700 23.0000 1.0000
75.3800 19.0000 1.0000
75.3900 21.0000 1.0000
75.4000 26.0000 1.0000
75.4100 32.0000 1.0000
75.4200 26.0000 1.0000
75.4300 21.0000 1.0000
75.4400 33.0000 1.0000
75.4500 17.0000 1.0000
75.4600 23.0000 1.0000
75.4700 28.0000 1.0000
75.4800 25.0000 1.0000
75.4900 21.0000 1.0000
75.5000 19.0000 1.0000
75.5100 22.0000 1.0000
75.5200 29.0000 1.0000
75.5300 25.0000 1.0000
75.5400 29.0000 1.0000
75.5500 24.0000 1.0000
75.5600 24.0000 1.0000
75.5700 26.0000 1.0000
75.5800 21.0000 1.0000
75.5900 25.0000 1.0000
75.6000 27.0000 1.0000
75.6100 7.0000 1.0000
75.6200 25.0000 1.0000
75.6300 24.0000 1.0000
75.6400 22.0000 1.0000
75.6500 15.0000 1.0000
75.6600 23.0000 1.0000
75.6700 21.0000 1.0000
75.6800 18.0000 1.0000
75.6900 19.0000 1.0000
75.7000 26.0000 1.0000
75.7100 28.0000 1.0000
75.7200 22.0000 1.0000
75.7300 20.0000 1.0000
75.7400 27.0000 1.0000
75.7500 19.0000 1.0000
75.7600 24.0000 1.0000
75.7700 22.0000 1.0000
75.7800 23.0000 1.0000
75.7900 25.0000 1.0000
75.8000 20.0000 1.0000
75.8100 31.0000 1.0000
75.8200 15.0000 1.0000
75.8300 23.0000 1.0000
75.8400 33.0000 1.0000
75.8500 27.0000 1.0000
75.8600 24.0000 1.0000
75.8700 18.0000 1.0000
75.8800 26.0000 1.0000
75.8900 20.0000 1.0000
75.9000 18.0000 1.0000
75.9100 22.0000 1.0000
75.9200 19.0000 1.0000
75.9300 26.0000 1.0000
75.9400 21.0000 1.0000
75.9500 24.0000 1.0000
75.9600 18.0000 1.0000
75.9700 25.0000 1.0000
75.9800 21.0000 1.0000
75.9900 21.0000 1.0000
76.0000 25.0000 1.0000
76.0100 22.0000 1.0000
76.0200 26.0000 1.0000
76.0300 23.0000 1.0000
76.0400 17.0000 1.0000
76.0500 29.0000 1.0000
76.0600 22.0000 1.0000
76.0700 23.0000 1.0000
76.0800 14.0000 1.0000
76.0900 17.0000 1.0000
76.1000 17.0000 1.0000
76.1100 24.0000 1.0000
76.1200 18.0000 1.0000
76.1300 19.0000 1.0000
76.1400 26.0000 1.0000
76.1500 26.0000 1.0000
76.1600 17.0000 1.0000
76.1700 26.0000 1.0000
76.1800 24.0000 1.0000
76.1900 23.0000 1.0000
76.2000 20.0000 1.0000
76.2100 27.0000 1.0000
76.2200 18.0000 1.0000
76.2300 21.0000 1.0000
76.2400 21.0000 1.0000
76.2500 22.0000 1.0000
76.2600 19.0000 1.0000
76.2700 25.0000 1.0000
76.2800 18.0000 1.0000
76.2900 23.0000 1.0000
76.3000 20.0000 1.0000
76.3100 16.0000 1.0000
76.3200 26.0000 1.0000
76.3300 26.0000 1.0000
76.3400 18.0000 1.0000
76.3500 14.0000 1.0000
76.3600 23.0000 1.0000
76.3700 31.0000 1.0000
76.3800 23.0000 1.0000
76.3900 25.0000 1.0000
76.4000 20.0000 1.0000
76.4100 21.0000 1.0000
76.4200 24.0000 1.0000
76.4300 26.0000 1.0000
76.4400 17.0000 1.0000
76.4500 21.0000 1.0000
76.4600 32.0000 1.0000
76.4700 23.0000 1.0000
76.4800 21.0000 1.0000
76.4900 25.0000 1.0000
76.5000 25.0000 1.0000
76.5100 21.0000 1.0000
76.5200 21.0000 1.0000
76.5300 23.0000 1.0000
76.5400 17.0000 1.0000
76.5500 30.0000 1.0000
76.5600 29.0000 1.0000
76.5700 17.0000 1.0000
76.5800 24.0000 1.0000
76.5900 25.0000 1.0000
76.6000 28.0000 1.0000
76.6100 28.0000 1.0000
76.6200 27.0000 1.0000
76.6300 29.0000 1.0000
76.6400 23.0000 1.0000
76.6500 24.0000 1.0000
76.6600 19.0000 1.0000
76.6700 16.0000 1.0000
76.6800 25.0000 1.0000
76.6900 24.0000 1.0000
76.7000 26.0000 1.0000
76.7100 23.0000 1.0000
76.7200 19.0000 1.0000
76.7300 26.0000 1.0000
76.7400 29.0000 1.0000
76.7500 25.0000 1.0000
76.7600 24.0000 1.0000
76.7700 29.0000 1.0000
76.7800 18.0000 1.0000
76.7900 23.0000 1.0000
76.8000 25.0000 1.0000
76.8100 24.0000 1.0000
76.8200 24.0000 1.0000
76.8300 17.0000 1.0000
76.8400 25.0000 1.0000
76.8500 25.0000 1.0000
76.8600 22.0000 1.0000
76.8700 25.0000 1.0000
76.8800 18.0000 1.0000
76.8900 22.0000 1.0000
76.9000 37.0000 1.0000
76.9100 22.0000 1.0000
76.9200 29.0000 1.0000
76.9300 19.0000 1.0000
76.9400 24.0000 1.0000
76.9500 16.0000 1.0000
76.9600 24.0000 1.0000
76.9700 22.0000 1.0000
76.9800 22.0000 1.0000
76.9900 27.0000 1.0000
77.0000 18.0000 1.0000
77.0100 22.0000 1.0000
77.0200 20.0000 1.0000
77.0300 16.0000 1.0000
77.0400 21.0000 1.0000
77.0500 27.0000 1.0000
77.0600 23.0000 1.0000
77.0700 30.0000 1.0000
77.0800 24.0000 1.0000
77.0900 17.0000 1.0000
77.1000 21.0000 1.0000
77.1100 23.0000 1.0000
77.1200 25.0000 1.0000
77.1300 19.0000 1.0000
77.1400 22.0000 1.0000
77.1500 25.0000 1.0000
77.1600 26.0000 1.0000
77.1700 17.0000 1.0000
77.1800 21.0000 1.0000
77.1900 22.0000 1.0000
77.2000 26.0000 1.0000
77.2100 13.0000 1.0000
77.2200 27.0000 1.0000
77.2300 25.0000 1.0000
77.2400 20.0000 1.0000
77.2500 18.0000 1.0000
77.2600 17.0000 1.0000
77.2700 22.0000 1.0000
77.2800 20.0000 1.0000
77.2900 15.0000 1.0000
77.3000 29.0000 1.0000
77.3100 22.0000 1.0000
77.3200 14.0000 1.0000
77.3300 27.0000 1.0000
77.3400 19.0000 1.0000
77.3500 20.0000 1.0000
77.3600 31.0000 1.0000
77.3700 26.0000 1.0000
77.3800 26.0000 1.0000
77.3900 13.0000 1.0000
77.4000 26.0000 1.0000
77.4100 17.0000 1.0000
77.4200 18.0000 1.0000
77.4300 24.0000 1.0000
77.4400 21.0000 1.0000
77.4500 16.0000 1.0000
77.4600 20.0000 1.0000
77.4700 18.0000 1.0000
77.4800 22.0000 1.0000
77.4900 29.0000 1.0000
77.5000 20.0000 1.0000
77.5100 25.0000 1.0000
77.5200 23.0000 1.0000
77.5300 18.0000 1.0000
77.5400 13.0000 1.0000
77.5500 23.0000 1.0000
77.5600 12.0000 1.0000
77.5700 22.0000 1.0000
77.5800 20.0000 1.0000
77.5900 26.0000 1.0000
77.6000 24.0000 1.0000
77.6100 23.0000 1.0000
77.6200 28.0000 1.0000
77.6300 23.0000 1.0000
77.6400 17.0000 1.0000
77.6500 22.0000 1.0000
77.6600 27.0000 1.0000
77.6700 26.0000 1.0000
77.6800 39.0000 1.0000
77.6900 19.0000 1.0000
77.7000 19.0000 1.0000
77.7100 18.0000 1.0000
77.7200 24.0000 1.0000
77.7300 28.0000 1.0000
77.7400 18.0000 1.0000
77.7500 18.0000 1.0000
77.7600 21.0000 1.0000
77.7700 23.0000 1.0000
77.7800 29.0000 1.0000
77.7900 19.0000 1.0000
77.8000 28.0000 1.0000
77.8100 20.0000 1.0000
77.8200 24.0000 1.0000
77.8300 22.0000 1.0000
77.8400 29.0000 1.0000
77.8500 23.0000 1.0000
77.8600 25.0000 1.0000
77.8700 25.0000 1.0000
77.8800 33.0000 1.0000
77.8900 33.0000 1.0000
77.9000 22.0000 1.0000
77.9100 18.0000 1.0000
77.9200 15.0000 1.0000
77.9300 18.0000 1.0000
77.9400 17.0000 1.0000
77.9500 23.0000 1.0000
77.9600 27.0000 1.0000
77.9700 34.0000 1.0000
77.9800 20.0000 1.0000
77.9900 24.0000 1.0000
78.0000 26.0000 1.0000
78.0100 26.0000 1.0000
78.0200 19.0000 1.0000
78.0300 31.0000 1.0000
78.0400 21.0000 1.0000
78.0500 29.0000 1.0000
78.0600 22.0000 1.0000
78.0700 26.0000 1.0000
78.0800 19.0000 1.0000
78.0900 22.0000 1.0000
78.1000 22.0000 1.0000
78.1100 18.0000 1.0000
78.1200 21.0000 1.0000
78.1300 36.0000 1.0000
78.1400 21.0000 1.0000
78.1500 22.0000 1.0000
78.1600 23.0000 1.0000
78.1700 22.0000 1.0000
78.1800 20.0000 1.0000
78.1900 21.0000 1.0000
78.2000 18.0000 1.0000
78.2100 18.0000 1.0000
78.2200 26.0000 1.0000
78.2300 20.0000 1.0000
78.2400 30.0000 1.0000
78.2500 18.0000 1.0000
78.2600 28.0000 1.0000
78.2700 15.0000 1.0000
78.2800 21.0000 1.0000
78.2900 26.0000 1.0000
78.3000 24.0000 1.0000
78.3100 14.0000 1.0000
78.3200 27.0000 1.0000
78.3300 12.0000 1.0000
78.3400 25.0000 1.0000
78.3500 25.0000 1.0000
78.3600 27.0000 1.0000
78.3700 24.0000 1.0000
78.3800 25.0000 1.0000
78.3900 13.0000 1.0000
78.4000 22.0000 1.0000
78.4100 35.0000 1.0000
78.4200 24.0000 1.0000
78.4300 20.0000 1.0000
78.4400 28.0000 1.0000
78.4500 15.0000 1.0000
78.4600 25.0000 1.0000
78.4700 20.0000 1.0000
78.4800 25.0000 1.0000
78.4900 17.0000 1.0000
78.5000 21.0000 1.0000
78.5100 25.0000 1.0000
78.5200 17.0000 1.0000
78.5300 13.0000 1.0000
78.5400 21.0000 1.0000
78.5500 20.0000 1.0000
78.5600 21.0000 1.0000
78.5700 17.0000 1.0000
78.5800 19.0000 1.0000
78.5900 17.0000 1.0000
78.6000 25.0000 1.0000
78.6100 18.0000 1.0000
78.6200 18.0000 1.0000
78.6300 31.0000 1.0000
78.6400 24.0000 1.0000
78.6500 17.0000 1.0000
78.6600 15.0000 1.0000
78.6700 26.0000 1.0000
78.6800 20.0000 1.0000
78.6900 15.0000 1.0000
78.7000 13.0000 1.0000
78.7100 26.0000 1.0000
78.7200 30.0000 1.0000
78.7300 19.0000 1.0000
78.7400 16.0000 1.0000
78.7500 27.0000 1.0000
78.7600 16.0000 1.0000
78.7700 28.0000 1.0000
78.7800 23.0000 1.0000
78.7900 16.0000 1.0000
78.8000 17.0000 1.0000
78.8100 22.0000 1.0000
78.8200 16.0000 1.0000
78.8300 15.0000 1.0000
78.8400 21.0000 1.0000
78.8500 24.0000 1.0000
78.8600 30.0000 1.0000
78.8700 22.0000 1.0000
78.8800 24.0000 1.0000
78.8900 22.0000 1.0000
78.9000 21.0000 1.0000
78.9100 24.0000 1.0000
78.9200 23.0000 1.0000
78.9300 22.0000 1.0000
78.9400 39.0000 1.0000
78.9500 38.0000 1.0000
78.9600 27.0000 1.0000
78.9700 18.0000 1.0000
78.9800 23.0000 1.0000
78.9900 21.0000 1.0000
79.0000 18.0000 1.0000
79.0100 23.0000 1.0000
79.0200 19.0000 1.0000
79.0300 25.0000 1.0000
79.0400 19.0000 1.0000
79.0500 21.0000 1.0000
79.0600 25.0000 1.0000
79.0700 18.0000 1.0000
79.0800 17.0000 1.0000
79.0900 19.0000 1.0000
79.1000 24.0000 1.0000
79.1100 20.0000 1.0000
79.1200 18.0000 1.0000
79.1300 17.0000 1.0000
79.1400 15.0000 1.0000
79.1500 18.0000 1.0000
79.1600 27.0000 1.0000
79.1700 21.0000 1.0000
79.1800 21.0000 1.0000
79.1900 22.0000 1.0000
79.2000 11.0000 1.0000
79.2100 8.0000 1.0000
79.2200 30.0000 1.0000
79.2300 19.0000 1.0000
79.2400 23.0000 1.0000
79.2500 18.0000 1.0000
79.2600 33.0000 1.0000
79.2700 21.0000 1.0000
79.2800 21.0000 1.0000
79.2900 26.0000 1.0000
79.3000 23.0000 1.0000
79.3100 30.0000 1.0000
79.3200 26.0000 1.0000
79.3300 20.0000 1.0000
79.3400 31.0000 1.0000
79.3500 20.0000 1.0000
79.3600 20.0000 1.0000
79.3700 25.0000 1.0000
79.3800 26.0000 1.0000
79.3900 22.0000 1.0000
79.4000 23.0000 1.0000
79.4100 28.0000 1.0000
79.4200 29.0000 1.0000
79.4300 20.0000 1.0000
79.4400 20.0000 1.0000
79.4500 31.0000 1.0000
79.4600 23.0000 1.0000
79.4700 25.0000 1.0000
79.4800 30.0000 1.0000
79.4900 18.0000 1.0000
79.5000 25.0000 1.0000
79.5100 25.0000 1.0000
79.5200 22.0000 1.0000
79.5300 25.0000 1.0000
79.5400 21.0000 1.0000
79.5500 32.0000 1.0000
79.5600 23.0000 1.0000
79.5700 22.0000 1.0000
79.5800 30.0000 1.0000
79.5900 32.0000 1.0000
79.6000 19.0000 1.0000
79.6100 22.0000 1.0000
79.6200 29.0000 1.0000
79.6300 20.0000 1.0000
79.6400 24.0000 1.0000
79.6500 28.0000 1.0000
79.6600 29.0000 1.0000
79.6700 25.0000 1.0000
79.6800 27.0000 1.0000
79.6900 25.0000 1.0000
79.7000 23.0000 1.0000
79.7100 19.0000 1.0000
79.7200 26.0000 1.0000
79.7300 22.0000 1.0000
79.7400 23.0000 1.0000
79.7500 22.0000 1.0000
79.7600 22.0000 1.0000
79.7700 29.0000 1.0000
79.7800 24.0000 1.0000
79.7900 24.0000 1.0000
79.8000 30.0000 1.0000
79.8100 26.0000 1.0000
79.8200 17.0000 1.0000
79.8300 30.0000 1.0000
79.8400 34.0000 1.0000
79.8500 20.0000 1.0000
79.8600 24.0000 1.0000
79.8700 25.0000 1.0000
79.8800 17.0000 1.0000
79.8900 29.0000 1.0000
79.9000 26.0000 1.0000
79.9100 25.0000 1.0000
79.9200 18.0000 1.0000
79.9300 30.0000 1.0000
79.9400 18.0000 1.0000
79.9500 20.0000 1.0000
79.9600 30.0000 1.0000
79.9700 25.0000 1.0000
79.9800 21.0000 1.0000
79.9900 20.0000 1.0000
80.0000 19.0000 1.0000
80.0100 23.0000 1.0000
80.0200 27.0000 1.0000
80.0300 22.0000 1.0000
80.0400 20.0000 1.0000
80.0500 31.0000 1.0000
80.0600 27.0000 1.0000
80.0700 25.0000 1.0000
80.0800 14.0000 1.0000
80.0900 23.0000 1.0000
80.1000 21.0000 1.0000
80.1100 26.0000 1.0000
80.1200 20.0000 1.0000
80.1300 22.0000 1.0000
80.1400 29.0000 1.0000
80.1500 25.0000 1.0000
80.1600 33.0000 1.0000
80.1700 20.0000 1.0000
80.1800 23.0000 1.0000
80.1900 24.0000 1.0000
80.2000 28.0000 1.0000
80.2100 19.0000 1.0000
80.2200 26.0000 1.0000
80.2300 33.0000 1.0000
80.2400 22.0000 1.0000
80.2500 20.0000 1.0000
80.2600 19.0000 1.0000
80.2700 16.0000 1.0000
80.2800 16.0000 1.0000
80.2900 18.0000 1.0000
80.3000 24.0000 1.0000
80.3100 22.0000 1.0000
80.3200 27.0000 1.0000
80.3300 17.0000 1.0000
80.3400 22.0000 1.0000
80.3500 24.0000 1.0000
80.3600 22.0000 1.0000
80.3700 21.0000 1.0000
80.3800 18.0000 1.0000
80.3900 16.0000 1.0000
80.4000 20.0000 1.0000
80.4100 27.0000 1.0000
80.4200 18.0000 1.0000
80.4300 19.0000 1.0000
80.4400 17.0000 1.0000
80.4500 13.0000 1.0000
80.4600 25.0000 1.0000
80.4700 27.0000 1.0000
80.4800 19.0000 1.0000
80.4900 24.0000 1.0000
80.5000 14.0000 1.0000
80.5100 18.0000 1.0000
80.5200 20.0000 1.0000
80.5300 13.0000 1.0000
80.5400 14.0000 1.0000
80.5500 23.0000 1.0000
80.5600 17.0000 1.0000
80.5700 20.0000 1.0000
80.5800 24.0000 1.0000
80.5900 23.0000 1.0000
80.6000 20.0000 1.0000
80.6100 23.0000 1.0000
80.6200 20.0000 1.0000
80.6300 24.0000 1.0000
80.6400 14.0000 1.0000
80.6500 28.0000 1.0000
80.6600 28.0000 1.0000
80.6700 15.0000 1.0000
80.6800 28.0000 1.0000
80.6900 21.0000 1.0000
80.7000 25.0000 1.0000
80.7100 17.0000 1.0000
80.7200 18.0000 1.0000
80.7300 22.0000 1.0000
80.7400 18.0000 1.0000
80.7500 12.0000 1.0000
80.7600 22.0000 1.0000
80.7700 20.0000 1.0000
80.7800 23.0000 1.0000
80.7900 15.0000 1.0000
80.8000 23.0000 1.0000
80.8100 25.0000 1.0000
80.8200 21.0000 1.0000
80.8300 27.0000 1.0000
80.8400 22.0000 1.0000
80.8500 12.0000 1.0000
80.8600 21.0000 1.0000
80.8700 23.0000 1.0000
80.8800 20.0000 1.0000
80.8900 22.0000 1.0000
80.9000 25.0000 1.0000
80.9100 18.0000 1.0000
80.9200 18.0000 1.0000
80.9300 25.0000 1.0000
80.9400 20.0000 1.0000
80.9500 23.0000 1.0000
80.9600 15.0000 1.0000
80.9700 24.0000 1.0000
80.9800 27.0000 1.0000
80.9900 27.0000 1.0000
81.0000 28.0000 1.0000
81.0100 24.0000 1.0000
81.0200 23.0000 1.0000
81.0300 23.0000 1.0000
81.0400 19.0000 1.0000
81.0500 18.0000 1.0000
81.0600 27.0000 1.0000
81.0700 27.0000 1.0000
81.0800 23.0000 1.0000
81.0900 16.0000 1.0000
81.1000 24.0000 1.0000
81.1100 26.0000 1.0000
81.1200 23.0000 1.0000
81.1300 31.0000 1.0000
81.1400 16.0000 1.0000
81.1500 26.0000 1.0000
81.1600 17.0000 1.0000
81.1700 19.0000 1.0000
81.1800 21.0000 1.0000
81.1900 22.0000 1.0000
81.2000 19.0000 1.0000
81.2100 14.0000 1.0000
81.2200 25.0000 1.0000
81.2300 18.0000 1.0000
81.2400 26.0000 1.0000
81.2500 21.0000 1.0000
81.2600 22.0000 1.0000
81.2700 18.0000 1.0000
81.2800 19.0000 1.0000
81.2900 23.0000 1.0000
81.3000 25.0000 1.0000
81.3100 14.0000 1.0000
81.3200 23.0000 1.0000
81.3300 21.0000 1.0000
81.3400 26.0000 1.0000
81.3500 20.0000 1.0000
81.3600 19.0000 1.0000
81.3700 20.0000 1.0000
81.3800 22.0000 1.0000
81.3900 21.0000 1.0000
81.4000 16.0000 1.0000
81.4100 22.0000 1.0000
81.4200 24.0000 1.0000
81.4300 16.0000 1.0000
81.4400 25.0000 1.0000
81.4500 28.0000 1.0000
81.4600 17.0000 1.0000
81.4700 14.0000 1.0000
81.4800 24.0000 1.0000
81.4900 24.0000 1.0000
81.5000 19.0000 1.0000
81.5100 21.0000 1.0000
81.5200 26.0000 1.0000
81.5300 14.0000 1.0000
81.5400 23.0000 1.0000
81.5500 29.0000 1.0000
81.5600 24.0000 1.0000
81.5700 28.0000 1.0000
81.5800 25.0000 1.0000
81.5900 21.0000 1.0000
81.6000 18.0000 1.0000
81.6100 29.0000 1.0000
81.6200 24.0000 1.0000
81.6300 21.0000 1.0000
81.6400 18.0000 1.0000
81.6500 20.0000 1.0000
81.6600 28.0000 1.0000
81.6700 31.0000 1.0000
81.6800 15.0000 1.0000
81.6900 21.0000 1.0000
81.7000 22.0000 1.0000
81.7100 16.0000 1.0000
81.7200 25.0000 1.0000
81.7300 23.0000 1.0000
81.7400 19.0000 1.0000
81.7500 23.0000 1.0000
81.7600 17.0000 1.0000
81.7700 19.0000 1.0000
81.7800 18.0000 1.0000
81.7900 31.0000 1.0000
81.8000 25.0000 1.0000
81.8100 12.0000 1.0000
81.8200 24.0000 1.0000
81.8300 15.0000 1.0000
81.8400 20.0000 1.0000
81.8500 23.0000 1.0000
81.8600 13.0000 1.0000
81.8700 19.0000 1.0000
81.8800 28.0000 1.0000
81.8900 23.0000 1.0000
81.9000 33.0000 1.0000
81.9100 20.0000 1.0000
81.9200 20.0000 1.0000
81.9300 16.0000 1.0000
81.9400 18.0000 1.0000
81.9500 28.0000 1.0000
81.9600 19.0000 1.0000
81.9700 29.0000 1.0000
81.9800 25.0000 1.0000
81.9900 23.0000 1.0000
82.0000 24.0000 1.0000
82.0100 23.0000 1.0000
82.0200 20.0000 1.0000
82.0300 18.0000 1.0000
82.0400 20.0000 1.0000
82.0500 15.0000 1.0000
82.0600 22.0000 1.0000
82.0700 21.0000 1.0000
82.0800 26.0000 1.0000
82.0900 29.0000 1.0000
82.1000 17.0000 1.0000
82.1100 23.0000 1.0000
82.1200 25.0000 1.0000
82.1300 19.0000 1.0000
82.1400 15.0000 1.0000
82.1500 22.0000 1.0000
82.1600 22.0000 1.0000
82.1700 18.0000 1.0000
82.1800 18.0000 1.0000
82.1900 19.0000 1.0000
82.2000 22.0000 1.0000
82.2100 25.0000 1.0000
82.2200 27.0000 1.0000
82.2300 22.0000 1.0000
82.2400 19.0000 1.0000
82.2500 25.0000 1.0000
82.2600 22.0000 1.0000
82.2700 26.0000 1.0000
82.2800 24.0000 1.0000
82.2900 27.0000 1.0000
82.3000 21.0000 1.0000
82.3100 23.0000 1.0000
82.3200 16.0000 1.0000
82.3300 26.0000 1.0000
82.3400 24.0000 1.0000
82.3500 17.0000 1.0000
82.3600 23.0000 1.0000
82.3700 24.0000 1.0000
82.3800 23.0000 1.0000
82.3900 19.0000 1.0000
82.4000 27.0000 1.0000
82.4100 21.0000 1.0000
82.4200 23.0000 1.0000
82.4300 24.0000 1.0000
82.4400 16.0000 1.0000
82.4500 18.0000 1.0000
82.4600 19.0000 1.0000
82.4700 22.0000 1.0000
82.4800 18.0000 1.0000
82.4900 26.0000 1.0000
82.5000 19.0000 1.0000
82.5100 30.0000 1.0000
82.5200 24.0000 1.0000
82.5300 28.0000 1.0000
82.5400 19.0000 1.0000
82.5500 18.0000 1.0000
82.5600 29.0000 1.0000
82.5700 17.0000 1.0000
82.5800 12.0000 1.0000
82.5900 22.0000 1.0000
82.6000 20.0000 1.0000
82.6100 18.0000 1.0000
82.6200 20.0000 1.0000
82.6300 27.0000 1.0000
82.6400 15.0000 1.0000
82.6500 21.0000 1.0000
82.6600 24.0000 1.0000
82.6700 23.0000 1.0000
82.6800 15.0000 1.0000
82.6900 13.0000 1.0000
82.7000 31.0000 1.0000
82.7100 21.0000 1.0000
82.7200 23.0000 1.0000
82.7300 22.0000 1.0000
82.7400 9.0000 1.0000
82.7500 25.0000 1.0000
82.7600 26.0000 1.0000
82.7700 22.0000 1.0000
82.7800 14.0000 1.0000
82.7900 22.0000 1.0000
82.8000 28.0000 1.0000
82.8100 28.0000 1.0000
82.8200 19.0000 1.0000
82.8300 21.0000 1.0000
82.8400 20.0000 1.0000
82.8500 17.0000 1.0000
82.8600 20.0000 1.0000
82.8700 23.0000 1.0000
82.8800 21.0000 1.0000
82.8900 28.0000 1.0000
82.9000 23.0000 1.0000
82.9100 29.0000 1.0000
82.9200 23.0000 1.0000
82.9300 13.0000 1.0000
82.9400 28.0000 1.0000
82.9500 18.0000 1.0000
82.9600 29.0000 1.0000
82.9700 23.0000 1.0000
82.9800 17.0000 1.0000
82.9900 20.0000 1.0000
83.0000 23.0000 1.0000
83.0100 20.0000 1.0000
83.0200 25.0000 1.0000
83.0300 20.0000 1.0000
83.0400 13.0000 1.0000
83.0500 24.0000 1.0000
83.0600 21.0000 1.0000
83.0700 28.0000 1.0000
83.0800 28.0000 1.0000
83.0900 20.0000 1.0000
83.1000 23.0000 1.0000
83.1100 22.0000 1.0000
83.1200 32.0000 1.0000
83.1300 24.0000 1.0000
83.1400 20.0000 1.0000
83.1500 21.0000 1.0000
83.1600 29.0000 1.0000
83.1700 25.0000 1.0000
83.1800 21.0000 1.0000
83.1900 22.0000 1.0000
83.2000 15.0000 1.0000
83.2100 21.0000 1.0000
83.2200 26.0000 1.0000
83.2300 18.0000 1.0000
83.2400 24.0000 1.0000
83.2500 20.0000 1.0000
83.2600 22.0000 1.0000
83.2700 21.0000 1.0000
83.2800 14.0000 1.0000
83.2900 23.0000 1.0000
83.3000 21.0000 1.0000
83.3100 25.0000 1.0000
83.3200 16.0000 1.0000
83.3300 33.0000 1.0000
83.3400 27.0000 1.0000
83.3500 24.0000 1.0000
83.3600 21.0000 1.0000
83.3700 17.0000 1.0000
83.3800 20.0000 1.0000
83.3900 32.0000 1.0000
83.4000 23.0000 1.0000
83.4100 17.0000 1.0000
83.4200 26.0000 1.0000
83.4300 26.0000 1.0000
83.4400 15.0000 1.0000
83.4500 15.0000 1.0000
83.4600 29.0000 1.0000
83.4700 24.0000 1.0000
83.4800 17.0000 1.0000
83.4900 14.0000 1.0000
83.5000 27.0000 1.0000
83.5100 26.0000 1.0000
83.5200 16.0000 1.0000
83.5300 29.0000 1.0000
83.5400 27.0000 1.0000
83.5500 14.0000 1.0000
83.5600 26.0000 1.0000
83.5700 20.0000 1.0000
83.5800 15.0000 1.0000
83.5900 18.0000 1.0000
83.6000 37.0000 1.0000
83.6100 25.0000 1.0000
83.6200 23.0000 1.0000
83.6300 25.0000 1.0000
83.6400 29.0000 1.0000
83.6500 23.0000 1.0000
83.6600 25.0000 1.0000
83.6700 21.0000 1.0000
83.6800 14.0000 1.0000
83.6900 26.0000 1.0000
83.7000 28.0000 1.0000
83.7100 29.0000 1.0000
83.7200 20.0000 1.0000
83.7300 15.0000 1.0000
83.7400 15.0000 1.0000
83.7500 17.0000 1.0000
83.7600 21.0000 1.0000
83.7700 25.0000 1.0000
83.7800 26.0000 1.0000
83.7900 20.0000 1.0000
83.8000 19.0000 1.0000
83.8100 20.0000 1.0000
83.8200 24.0000 1.0000
83.8300 22.0000 1.0000
83.8400 21.0000 1.0000
83.8500 17.0000 1.0000
83.8600 29.0000 1.0000
83.8700 22.0000 1.0000
83.8800 13.0000 1.0000
83.8900 16.0000 1.0000
83.9000 22.0000 1.0000
83.9100 18.0000 1.0000
83.9200 24.0000 1.0000
83.9300 19.0000 1.0000
83.9400 15.0000 1.0000
83.9500 25.0000 1.0000
83.9600 33.0000 1.0000
83.9700 36.0000 1.0000
83.9800 17.0000 1.0000
83.9900 24.0000 1.0000
84.0000 16.0000 1.0000
84.0100 15.0000 1.0000
84.0200 19.0000 1.0000
84.0300 18.0000 1.0000
84.0400 22.0000 1.0000
84.0500 31.0000 1.0000
84.0600 16.0000 1.0000
84.0700 16.0000 1.0000
84.0800 15.0000 1.0000
84.0900 16.0000 1.0000
84.1000 13.0000 1.0000
84.1100 24.0000 1.0000
84.1200 27.0000 1.0000
84.1300 19.0000 1.0000
84.1400 31.0000 1.0000
84.1500 16.0000 1.0000
84.1600 16.0000 1.0000
84.1700 26.0000 1.0000
84.1800 21.0000 1.0000
84.1900 13.0000 1.0000
84.2000 19.0000 1.0000
84.2100 24.0000 1.0000
84.2200 27.0000 1.0000
84.2300 18.0000 1.0000
84.2400 22.0000 1.0000
84.2500 18.0000 1.0000
84.2600 24.0000 1.0000
84.2700 20.0000 1.0000
84.2800 22.0000 1.0000
84.2900 16.0000 1.0000
84.3000 12.0000 1.0000
84.3100 16.0000 1.0000
84.3200 23.0000 1.0000
84.3300 28.0000 1.0000
84.3400 21.0000 1.0000
84.3500 17.0000 1.0000
84.3600 19.0000 1.0000
84.3700 13.0000 1.0000
84.3800 17.0000 1.0000
84.3900 14.0000 1.0000
84.4000 19.0000 1.0000
84.4100 22.0000 1.0000
84.4200 16.0000 1.0000
84.4300 23.0000 1.0000
84.4400 23.0000 1.0000
84.4500 16.0000 1.0000
84.4600 13.0000 1.0000
84.4700 25.0000 1.0000
84.4800 22.0000 1.0000
84.4900 27.0000 1.0000
84.5000 20.0000 1.0000
84.5100 18.0000 1.0000
84.5200 21.0000 1.0000
84.5300 20.0000 1.0000
84.5400 26.0000 1.0000
84.5500 14.0000 1.0000
84.5600 19.0000 1.0000
84.5700 19.0000 1.0000
84.5800 30.0000 1.0000
84.5900 26.0000 1.0000
84.6000 22.0000 1.0000
84.6100 15.0000 1.0000
84.6200 17.0000 1.0000
84.6300 21.0000 1.0000
84.6400 19.0000 1.0000
84.6500 27.0000 1.0000
84.6600 18.0000 1.0000
84.6700 28.0000 1.0000
84.6800 11.0000 1.0000
84.6900 16.0000 1.0000
84.7000 18.0000 1.0000
84.7100 33.0000 1.0000
84.7200 18.0000 1.0000
84.7300 18.0000 1.0000
84.7400 30.0000 1.0000
84.7500 17.0000 1.0000
84.7600 20.0000 1.0000
84.7700 21.0000 1.0000
84.7800 25.0000 1.0000
84.7900 16.0000 1.0000
84.8000 22.0000 1.0000
84.8100 18.0000 1.0000
84.8200 18.0000 1.0000
84.8300 13.0000 1.0000
84.8400 24.0000 1.0000
84.8500 19.0000 1.0000
84.8600 10.0000 1.0000
84.8700 18.0000 1.0000
84.8800 19.0000 1.0000
84.8900 24.0000 1.0000
84.9000 20.0000 1.0000
84.9100 24.0000 1.0000
84.9200 23.0000 1.0000
84.9300 26.0000 1.0000
84.9400 33.0000 1.0000
84.9500 27.0000 1.0000
84.9600 25.0000 1.0000
84.9700 19.0000 1.0000
84.9800 28.0000 1.0000
84.9900 25.0000 1.0000
85.0000 27.0000 1.0000
85.0100 31.0000 1.0000
85.0200 21.0000 1.0000
85.0300 26.0000 1.0000
85.0400 22.0000 1.0000
85.0500 22.0000 1.0000
85.0600 22.0000 1.0000
85.0700 23.0000 1.0000
85.0800 15.0000 1.0000
85.0900 25.0000 1.0000
85.1000 24.0000 1.0000
85.1100 20.0000 1.0000
85.1200 21.0000 1.0000
85.1300 21.0000 1.0000
85.1400 18.0000 1.0000
85.1500 27.0000 1.0000
85.1600 31.0000 1.0000
85.1700 28.0000 1.0000
85.1800 23.0000 1.0000
85.1900 25.0000 1.0000
85.2000 24.0000 1.0000
85.2100 29.0000 1.0000
85.2200 29.0000 1.0000
85.2300 24.0000 1.0000
85.2400 29.0000 1.0000
85.2500 30.0000 1.0000
85.2600 26.0000 1.0000
85.2700 24.0000 1.0000
85.2800 22.0000 1.0000
85.2900 28.0000 1.0000
85.3000 24.0000 1.0000
85.3100 29.0000 1.0000
85.3200 35.0000 1.0000
85.3300 27.0000 1.0000
85.3400 23.0000 1.0000
85.3500 25.0000 1.0000
85.3600 27.0000 1.0000
85.3700 26.0000 1.0000
85.3800 24.0000 1.0000
85.3900 29.0000 1.0000
85.4000 27.0000 1.0000
85.4100 21.0000 1.0000
85.4200 27.0000 1.0000
85.4300 25.0000 1.0000
85.4400 25.0000 1.0000
85.4500 30.0000 1.0000
85.4600 22.0000 1.0000
85.4700 25.0000 1.0000
85.4800 32.0000 1.0000
85.4900 28.0000 1.0000
85.5000 34.0000 1.0000
85.5100 34.0000 1.0000
85.5200 29.0000 1.0000
85.5300 28.0000 1.0000
85.5400 25.0000 1.0000
85.5500 35.0000 1.0000
85.5600 26.0000 1.0000
85.5700 42.0000 1.0000
85.5800 41.0000 1.0000
85.5900 30.0000 1.0000
85.6000 31.0000 1.0000
85.6100 33.0000 1.0000
85.6200 37.0000 1.0000
85.6300 36.0000 1.0000
85.6400 36.0000 1.0000
85.6500 35.0000 1.0000
85.6600 44.0000 1.0000
85.6700 38.0000 1.0000
85.6800 39.0000 1.0000
85.6900 44.0000 1.0000
85.7000 36.0000 1.0000
85.7100 26.0000 1.0000
85.7200 33.0000 1.0000
85.7300 30.0000 1.0000
85.7400 43.0000 1.0000
85.7500 33.0000 1.0000
85.7600 33.0000 1.0000
85.7700 45.0000 1.0000
85.7800 47.0000 1.0000
85.7900 36.0000 1.0000
85.8000 32.0000 1.0000
85.8100 22.0000 1.0000
85.8200 39.0000 1.0000
85.8300 37.0000 1.0000
85.8400 36.0000 1.0000
85.8500 35.0000 1.0000
85.8600 26.0000 1.0000
85.8700 28.0000 1.0000
85.8800 44.0000 1.0000
85.8900 20.0000 1.0000
85.9000 30.0000 1.0000
85.9100 39.0000 1.0000
85.9200 21.0000 1.0000
85.9300 39.0000 1.0000
85.9400 24.0000 1.0000
85.9500 26.0000 1.0000
85.9600 28.0000 1.0000
85.9700 33.0000 1.0000
85.9800 21.0000 1.0000
85.9900 40.0000 1.0000
86.0000 28.0000 1.0000
86.0100 34.0000 1.0000
86.0200 22.0000 1.0000
86.0300 26.0000 1.0000
86.0400 28.0000 1.0000
86.0500 27.0000 1.0000
86.0600 26.0000 1.0000
86.0700 23.0000 1.0000
86.0800 23.0000 1.0000
86.0900 27.0000 1.0000
86.1000 20.0000 1.0000
86.1100 28.0000 1.0000
86.1200 23.0000 1.0000
86.1300 19.0000 1.0000
86.1400 34.0000 1.0000
86.1500 27.0000 1.0000
86.1600 27.0000 1.0000
86.1700 22.0000 1.0000
86.1800 19.0000 1.0000
86.1900 24.0000 1.0000
86.2000 33.0000 1.0000
86.2100 19.0000 1.0000
86.2200 20.0000 1.0000
86.2300 26.0000 1.0000
86.2400 25.0000 1.0000
86.2500 19.0000 1.0000
86.2600 23.0000 1.0000
86.2700 18.0000 1.0000
86.2800 28.0000 1.0000
86.2900 27.0000 1.0000
86.3000 25.0000 1.0000
86.3100 25.0000 1.0000
86.3200 24.0000 1.0000
86.3300 23.0000 1.0000
86.3400 25.0000 1.0000
86.3500 21.0000 1.0000
86.3600 27.0000 1.0000
86.3700 27.0000 1.0000
86.3800 17.0000 1.0000
86.3900 18.0000 1.0000
86.4000 21.0000 1.0000
86.4100 22.0000 1.0000
86.4200 23.0000 1.0000
86.4300 25.0000 1.0000
86.4400 20.0000 1.0000
86.4500 34.0000 1.0000
86.4600 14.0000 1.0000
86.4700 21.0000 1.0000
86.4800 18.0000 1.0000
86.4900 18.0000 1.0000
86.5000 26.0000 1.0000
86.5100 26.0000 1.0000
86.5200 23.0000 1.0000
86.5300 32.0000 1.0000
86.5400 26.0000 1.0000
86.5500 23.0000 1.0000
86.5600 22.0000 1.0000
86.5700 22.0000 1.0000
86.5800 17.0000 1.0000
86.5900 17.0000 1.0000
86.6000 21.0000 1.0000
86.6100 21.0000 1.0000
86.6200 16.0000 1.0000
86.6300 19.0000 1.0000
86.6400 24.0000 1.0000
86.6500 18.0000 1.0000
86.6600 21.0000 1.0000
86.6700 20.0000 1.0000
86.6800 23.0000 1.0000
86.6900 18.0000 1.0000
86.7000 24.0000 1.0000
86.7100 24.0000 1.0000
86.7200 19.0000 1.0000
86.7300 19.0000 1.0000
86.7400 18.0000 1.0000
86.7500 22.0000 1.0000
86.7600 21.0000 1.0000
86.7700 19.0000 1.0000
86.7800 20.0000 1.0000
86.7900 25.0000 1.0000
86.8000 17.0000 1.0000
86.8100 17.0000 1.0000
86.8200 20.0000 1.0000
86.8300 17.0000 1.0000
86.8400 13.0000 1.0000
86.8500 23.0000 1.0000
86.8600 19.0000 1.0000
86.8700 26.0000 1.0000
86.8800 21.0000 1.0000
86.8900 14.0000 1.0000
86.9000 26.0000 1.0000
86.9100 22.0000 1.0000
86.9200 23.0000 1.0000
86.9300 23.0000 1.0000
86.9400 17.0000 1.0000
86.9500 16.0000 1.0000
86.9600 12.0000 1.0000
86.9700 19.0000 1.0000
86.9800 20.0000 1.0000
86.9900 16.0000 1.0000
87.0000 13.0000 1.0000
87.0100 27.0000 1.0000
87.0200 16.0000 1.0000
87.0300 22.0000 1.0000
87.0400 23.0000 1.0000
87.0500 23.0000 1.0000
87.0600 28.0000 1.0000
87.0700 21.0000 1.0000
87.0800 20.0000 1.0000
87.0900 23.0000 1.0000
87.1000 21.0000 1.0000
87.1100 29.0000 1.0000
87.1200 24.0000 1.0000
87.1300 17.0000 1.0000
87.1400 22.0000 1.0000
87.1500 24.0000 1.0000
87.1600 18.0000 1.0000
87.1700 22.0000 1.0000
87.1800 18.0000 1.0000
87.1900 17.0000 1.0000
87.2000 20.0000 1.0000
87.2100 20.0000 1.0000
87.2200 18.0000 1.0000
87.2300 22.0000 1.0000
87.2400 18.0000 1.0000
87.2500 18.0000 1.0000
87.2600 17.0000 1.0000
87.2700 21.0000 1.0000
87.2800 30.0000 1.0000
87.2900 26.0000 1.0000
87.3000 18.0000 1.0000
87.3100 19.0000 1.0000
87.3200 17.0000 1.0000
87.3300 14.0000 1.0000
87.3400 17.0000 1.0000
87.3500 13.0000 1.0000
87.3600 17.0000 1.0000
87.3700 24.0000 1.0000
87.3800 17.0000 1.0000
87.3900 21.0000 1.0000
87.4000 11.0000 1.0000
87.4100 21.0000 1.0000
87.4200 15.0000 1.0000
87.4300 19.0000 1.0000
87.4400 12.0000 1.0000
87.4500 19.0000 1.0000
87.4600 12.0000 1.0000
87.4700 26.0000 1.0000
87.4800 16.0000 1.0000
87.4900 19.0000 1.0000
87.5000 18.0000 1.0000
87.5100 24.0000 1.0000
87.5200 23.0000 1.0000
87.5300 18.0000 1.0000
87.5400 19.0000 1.0000
87.5500 21.0000 1.0000
87.5600 27.0000 1.0000
87.5700 17.0000 1.0000
87.5800 20.0000 1.0000
87.5900 30.0000 1.0000
87.6000 20.0000 1.0000
87.6100 21.0000 1.0000
87.6200 23.0000 1.0000
87.6300 16.0000 1.0000
87.6400 23.0000 1.0000
87.6500 13.0000 1.0000
87.6600 18.0000 1.0000
87.6700 22.0000 1.0000
87.6800 17.0000 1.0000
87.6900 18.0000 1.0000
87.7000 28.0000 1.0000
87.7100 18.0000 1.0000
87.7200 22.0000 1.0000
87.7300 22.0000 1.0000
87.7400 20.0000 1.0000
87.7500 18.0000 1.0000
87.7600 22.0000 1.0000
87.7700 16.0000 1.0000
87.7800 22.0000 1.0000
87.7900 18.0000 1.0000
87.8000 17.0000 1.0000
87.8100 19.0000 1.0000
87.8200 22.0000 1.0000
87.8300 22.0000 1.0000
87.8400 23.0000 1.0000
87.8500 24.0000 1.0000
87.8600 20.0000 1.0000
87.8700 28.0000 1.0000
87.8800 31.0000 1.0000
87.8900 25.0000 1.0000
87.9000 16.0000 1.0000
87.9100 26.0000 1.0000
87.9200 12.0000 1.0000
87.9300 19.0000 1.0000
87.9400 26.0000 1.0000
87.9500 9.0000 1.0000
87.9600 22.0000 1.0000
87.9700 21.0000 1.0000
87.9800 23.0000 1.0000
87.9900 16.0000 1.0000
88.0000 23.0000 1.0000
88.0100 19.0000 1.0000
88.0200 26.0000 1.0000
88.0300 17.0000 1.0000
88.0400 14.0000 1.0000
88.0500 25.0000 1.0000
88.0600 32.0000 1.0000
88.0700 22.0000 1.0000
88.0800 24.0000 1.0000
88.0900 15.0000 1.0000
88.1000 14.0000 1.0000
88.1100 21.0000 1.0000
88.1200 23.0000 1.0000
88.1300 19.0000 1.0000
88.1400 19.0000 1.0000
88.1500 17.0000 1.0000
88.1600 25.0000 1.0000
88.1700 22.0000 1.0000
88.1800 21.0000 1.0000
88.1900 23.0000 1.0000
88.2000 19.0000 1.0000
88.2100 13.0000 1.0000
88.2200 27.0000 1.0000
88.2300 20.0000 1.0000
88.2400 22.0000 1.0000
88.2500 18.0000 1.0000
88.2600 21.0000 1.0000
88.2700 28.0000 1.0000
88.2800 24.0000 1.0000
88.2900 18.0000 1.0000
88.3000 19.0000 1.0000
88.3100 18.0000 1.0000
88.3200 23.0000 1.0000
88.3300 22.0000 1.0000
88.3400 31.0000 1.0000
88.3500 16.0000 1.0000
88.3600 17.0000 1.0000
88.3700 17.0000 1.0000
88.3800 19.0000 1.0000
88.3900 23.0000 1.0000
88.4000 15.0000 1.0000
88.4100 21.0000 1.0000
88.4200 11.0000 1.0000
88.4300 17.0000 1.0000
88.4400 30.0000 1.0000
88.4500 11.0000 1.0000
88.4600 15.0000 1.0000
88.4700 20.0000 1.0000
88.4800 15.0000 1.0000
88.4900 26.0000 1.0000
88.5000 16.0000 1.0000
88.5100 22.0000 1.0000
88.5200 18.0000 1.0000
88.5300 18.0000 1.0000
88.5400 16.0000 1.0000
88.5500 17.0000 1.0000
88.5600 23.0000 1.0000
88.5700 22.0000 1.0000
88.5800 16.0000 1.0000
88.5900 22.0000 1.0000
88.6000 17.0000 1.0000
88.6100 17.0000 1.0000
88.6200 17.0000 1.0000
88.6300 21.0000 1.0000
88.6400 26.0000 1.0000
88.6500 18.0000 1.0000
88.6600 19.0000 1.0000
88.6700 22.0000 1.0000
88.6800 22.0000 1.0000
88.6900 20.0000 1.0000
88.7000 19.0000 1.0000
88.7100 19.0000 1.0000
88.7200 11.0000 1.0000
88.7300 13.0000 1.0000
88.7400 16.0000 1.0000
88.7500 17.0000 1.0000
88.7600 18.0000 1.0000
88.7700 16.0000 1.0000
88.7800 15.0000 1.0000
88.7900 20.0000 1.0000
88.8000 22.0000 1.0000
88.8100 22.0000 1.0000
88.8200 23.0000 1.0000
88.8300 20.0000 1.0000
88.8400 26.0000 1.0000
88.8500 18.0000 1.0000
88.8600 17.0000 1.0000
88.8700 20.0000 1.0000
88.8800 18.0000 1.0000
88.8900 24.0000 1.0000
88.9000 19.0000 1.0000
88.9100 26.0000 1.0000
88.9200 17.0000 1.0000
88.9300 21.0000 1.0000
88.9400 19.0000 1.0000
88.9500 24.0000 1.0000
88.9600 20.0000 1.0000
88.9700 17.0000 1.0000
88.9800 14.0000 1.0000
88.9900 22.0000 1.0000
89.0000 21.0000 1.0000
89.0100 20.0000 1.0000
89.0200 15.0000 1.0000
89.0300 22.0000 1.0000
89.0400 16.0000 1.0000
89.0500 36.0000 1.0000
89.0600 23.0000 1.0000
89.0700 17.0000 1.0000
89.0800 16.0000 1.0000
89.0900 22.0000 1.0000
89.1000 16.0000 1.0000
89.1100 15.0000 1.0000
89.1200 18.0000 1.0000
89.1300 22.0000 1.0000
89.1400 15.0000 1.0000
89.1500 15.0000 1.0000
89.1600 20.0000 1.0000
89.1700 14.0000 1.0000
89.1800 17.0000 1.0000
89.1900 20.0000 1.0000
89.2000 29.0000 1.0000
89.2100 28.0000 1.0000
89.2200 25.0000 1.0000
89.2300 20.0000 1.0000
89.2400 21.0000 1.0000
89.2500 18.0000 1.0000
89.2600 17.0000 1.0000
89.2700 16.0000 1.0000
89.2800 14.0000 1.0000
89.2900 21.0000 1.0000
89.3000 20.0000 1.0000
89.3100 19.0000 1.0000
89.3200 21.0000 1.0000
89.3300 19.0000 1.0000
89.3400 12.0000 1.0000
89.3500 16.0000 1.0000
89.3600 21.0000 1.0000
89.3700 18.0000 1.0000
89.3800 19.0000 1.0000
89.3900 25.0000 1.0000
89.4000 20.0000 1.0000
89.4100 18.0000 1.0000
89.4200 19.0000 1.0000
89.4300 14.0000 1.0000
89.4400 15.0000 1.0000
89.4500 18.0000 1.0000
89.4600 31.0000 1.0000
89.4700 18.0000 1.0000
89.4800 17.0000 1.0000
89.4900 17.0000 1.0000
89.5000 21.0000 1.0000
89.5100 22.0000 1.0000
89.5200 17.0000 1.0000
89.5300 22.0000 1.0000
89.5400 18.0000 1.0000
89.5500 21.0000 1.0000
89.5600 22.0000 1.0000
89.5700 16.0000 1.0000
89.5800 15.0000 1.0000
89.5900 23.0000 1.0000
89.6000 21.0000 1.0000
89.6100 26.0000 1.0000
89.6200 15.0000 1.0000
89.6300 18.0000 1.0000
89.6400 16.0000 1.0000
89.6500 12.0000 1.0000
89.6600 16.0000 1.0000
89.6700 17.0000 1.0000
89.6800 16.0000 1.0000
89.6900 23.0000 1.0000
89.7000 18.0000 1.0000
89.7100 19.0000 1.0000
89.7200 24.0000 1.0000
89.7300 17.0000 1.0000
89.7400 10.0000 1.0000
89.7500 23.0000 1.0000
89.7600 19.0000 1.0000
89.7700 15.0000 1.0000
89.7800 10.0000 1.0000
89.7900 25.0000 1.0000
89.8000 30.0000 1.0000
89.8100 21.0000 1.0000
89.8200 20.0000 1.0000
89.8300 25.0000 1.0000
89.8400 23.0000 1.0000
89.8500 17.0000 1.0000
89.8600 11.0000 1.0000
89.8700 33.0000 1.0000
89.8800 19.0000 1.0000
89.8900 21.0000 1.0000
89.9000 18.0000 1.0000
89.9100 16.0000 1.0000
89.9200 20.0000 1.0000
89.9300 18.0000 1.0000
89.9400 13.0000 1.0000
89.9500 23.0000 1.0000
89.9600 18.0000 1.0000
89.9700 22.0000 1.0000
89.9800 19.0000 1.0000
89.9900 28.0000 1.0000
90.0000 16.0000 1.0000
*RAS_INT_END
*RAS_TEMPERATURE_START
*RAS_TEMPERATURE_END
*RAS_DATA_END
